%OpenBCI Raw EXG Data
%Number of channels = 8
%Sample Rate = 250 Hz
%Board = OpenBCI_GUI$BoardCytonSerial
Sample Index, EXG Channel 0, EXG Channel 1, EXG Channel 2, EXG Channel 3, EXG Channel 4, EXG Channel 5, EXG Channel 6, EXG Channel 7, Accel Channel 0, Accel Channel 1, Accel Channel 2, Other, Other, Other, Other, Other, Other, Other, Analog Channel 0, Analog Channel 1, Analog Channel 2, Timestamp, Other, Timestamp (Formatted)
193.0, -187500.02235174447, -187500.02235174447, 98240.3872299656, -187500.02235174447, -187500.02235174447, -187500.02235174447, -187500.02235174447, -187500.02235174447, 0.056, 0.01, 0.974, 192.0, 1.0, 192.0, 0.0, 80.0, 30.0, 112.0, 0.0, 0.0, 0.0, 1.708991111991286E9, 0.0, 2024-02-26 18:45:11.991
194.0, -187500.02235174447, -187500.02235174447, 98244.43289571202, -187500.02235174447, -187500.02235174447, -187500.02235174447, -187500.02235174447, -187500.02235174447, 0.056, 0.01, 0.974, 192.0, 0.0, 0.0, 0.0, 0.0, 0.0, 0.0, 0.0, 0.0, 0.0, 1.708991111991332E9, 0.0, 2024-02-26 18:45:11.991
0.0, 0.0, 0.0, 0.0, 0.0, 0.0, 0.0, 0.0, 0.0, 0.056, 0.01, 0.974, 192.0, 0.0, 0.0, 0.0, 0.0, 0.0, 0.0, 0.0, 0.0, 0.0, 1.708991112054593E9, 0.0, 2024-02-26 18:45:12.054
1.0, 187500.0, 187500.0, 187500.0, -182790.48744326681, 187500.0, 15818.575420209816, -182300.023114684, -182282.25347784205, 0.052000000000000005, 0.014, 0.972, 192.0, 1.0, 160.0, 0.0, 112.0, 30.0, 96.0, 0.0, 0.0, 0.0, 1.708991112070651E9, 0.0, 2024-02-26 18:45:12.070
2.0, 187500.0, 187500.0, 187500.0, -182689.68107577338, 187500.0, 15283.653471905409, -182223.4683899246, -182201.60838384728, 0.052000000000000005, 0.014, 0.972, 192.0, 0.0, 0.0, 0.0, 0.0, 0.0, 0.0, 0.0, 0.0, 0.0, 1.708991112074657E9, 0.0, 2024-02-26 18:45:12.074
3.0, 187500.0, 187500.0, 187500.0, -182536.99630939917, 187500.0, 14512.495936452859, -182138.75527843897, -182116.3364787503, 0.052000000000000005, 0.014, 0.972, 192.0, 0.0, 0.0, 0.0, 0.0, 0.0, 0.0, 0.0, 0.0, 0.0, 1.708991112077643E9, 0.0, 2024-02-26 18:45:12.077
4.0, 187500.0, 187500.0, 187500.0, -182553.15662064037, 187500.0, 14715.226258662495, -182146.60074074278, -182131.60272021327, 0.052000000000000005, 0.014, 0.972, 192.0, 0.0, 0.0, 0.0, 0.0, 0.0, 0.0, 0.0, 0.0, 0.0, 1.708991112081636E9, 0.0, 2024-02-26 18:45:12.081
5.0, 187500.0, 187500.0, 187500.0, -182702.48862534628, 187500.0, 15715.131546870656, -182302.66062052973, -182288.1766901227, 0.052000000000000005, 0.014, 0.972, 192.0, 0.0, 0.0, 0.0, 0.0, 0.0, 0.0, 0.0, 0.0, 0.0, 1.708991112085632E9, 0.0, 2024-02-26 18:45:12.085
6.0, 187500.0, 187500.0, 187500.0, -182655.70642420131, 187500.0, 15492.39641337352, -182264.34973053334, -182248.27882627, 0.052000000000000005, 0.014, 0.972, 192.0, 0.0, 0.0, 0.0, 0.0, 0.0, 0.0, 0.0, 0.0, 0.0, 1.708991112088626E9, 0.0, 2024-02-26 18:45:12.088
7.0, 187500.0, 187500.0, 187500.0, -182487.6660093863, 187500.0, 14592.001091480386, -182119.46572297404, -182101.4278651986, 0.052000000000000005, 0.014, 0.972, 192.0, 0.0, 0.0, 0.0, 0.0, 0.0, 0.0, 0.0, 0.0, 0.0, 1.708991112093688E9, 0.0, 2024-02-26 18:45:12.093
8.0, 187500.0, 187500.0, 187500.0, -182468.82348881048, 187500.0, 14637.665705402578, -182113.81073162684, -182094.6329348842, 0.058, 0.012, 0.976, 192.0, 1.0, 208.0, 0.0, 96.0, 30.0, 128.0, 0.0, 0.0, 0.0, 1.708991112097639E9, 0.0, 2024-02-26 18:45:12.097
9.0, 187500.0, 187500.0, 187500.0, -182594.44029264932, 187500.0, 15601.13765014859, -182245.73072740206, -182227.6705178822, 0.058, 0.012, 0.976, 192.0, 0.0, 0.0, 0.0, 0.0, 0.0, 0.0, 0.0, 0.0, 0.0, 1.708991112101641E9, 0.0, 2024-02-26 18:45:12.101
10.0, 187500.0, 187500.0, 187500.0, -182604.96796428776, 187500.0, 15738.220898892987, -182265.57907647837, -182246.64714892473, 0.058, 0.012, 0.976, 192.0, 0.0, 0.0, 0.0, 0.0, 0.0, 0.0, 0.0, 0.0, 0.0, 1.708991112105636E9, 0.0, 2024-02-26 18:45:12.105
11.0, 187500.0, 187500.0, 187500.0, -182434.13358141587, 187500.0, 14760.913224329142, -182139.15760983917, -182116.02355432793, 0.058, 0.012, 0.976, 192.0, 0.0, 0.0, 0.0, 0.0, 0.0, 0.0, 0.0, 0.0, 0.0, 1.708991112109651E9, 0.0, 2024-02-26 18:45:12.109
12.0, 187500.0, 187500.0, 187500.0, -182389.98888611663, 187500.0, 14618.219687726461, -182104.87003384472, -182085.71458884652, 0.058, 0.012, 0.976, 192.0, 0.0, 0.0, 0.0, 0.0, 0.0, 0.0, 0.0, 0.0, 0.0, 1.708991112113698E9, 0.0, 2024-02-26 18:45:12.113
13.0, 187500.0, 187500.0, 187500.0, -182503.15576829383, 187500.0, 15426.794043397194, -182221.03204977897, -182200.71431406908, 0.058, 0.012, 0.976, 192.0, 0.0, 0.0, 0.0, 0.0, 0.0, 0.0, 0.0, 0.0, 0.0, 1.708991112116685E9, 0.0, 2024-02-26 18:45:12.116
14.0, 187500.0, 187500.0, 187500.0, -182571.46269934927, 187500.0, 15857.825083473335, -182298.14556814978, -182277.04552138396, 0.058, 0.012, 0.976, 192.0, 0.0, 0.0, 0.0, 0.0, 0.0, 0.0, 0.0, 0.0, 0.0, 1.708991112120685E9, 0.0, 2024-02-26 18:45:12.120
15.0, 187500.0, 187500.0, 187500.0, -182407.64676423633, 187500.0, 14856.399876642214, -182157.46368854807, -182137.57063598285, 0.058, 0.012, 0.976, 192.0, 0.0, 0.0, 0.0, 0.0, 0.0, 0.0, 0.0, 0.0, 0.0, 1.708991112125694E9, 0.0, 2024-02-26 18:45:12.125
16.0, 187500.0, 187500.0, 187500.0, -182324.54297835147, 187500.0, 14519.424977234004, -182102.21017625454, -182084.70876034605, 0.058, 0.012, 0.976, 192.0, 0.0, 0.0, 0.0, 0.0, 0.0, 0.0, 0.0, 0.0, 0.0, 1.708991112129677E9, 0.0, 2024-02-26 18:45:12.129
17.0, 187500.0, 187500.0, 187500.0, -182401.27651706655, 187500.0, 15145.787912105074, -182176.4626713351, -182161.1517263832, 0.058, 0.012, 0.976, 192.0, 0.0, 0.0, 0.0, 0.0, 0.0, 0.0, 0.0, 0.0, 0.0, 1.708991112133674E9, 0.0, 2024-02-26 18:45:12.133
18.0, 187500.0, 187500.0, 187500.0, -182496.4278932128, 187500.0, 15826.957324380557, -182281.9182016752, -182266.60725672334, 0.054, 0.012, 0.978, 192.0, 1.0, 176.0, 0.0, 96.0, 30.0, 144.0, 0.0, 0.0, 0.0, 1.708991112137674E9, 0.0, 2024-02-26 18:45:12.137
19.0, 187500.0, 187500.0, 187500.0, -182324.00653648455, 187500.0, 14918.135394827772, -182181.08948243732, -182145.7960779424, 0.054, 0.012, 0.978, 192.0, 0.0, 0.0, 0.0, 0.0, 0.0, 0.0, 0.0, 0.0, 0.0, 1.708991112141683E9, 0.0, 2024-02-26 18:45:12.141
20.0, 187500.0, 187500.0, 187500.0, -182212.4042764192, 187500.0, 14426.776996466757, -182136.29658654888, -182102.21017625454, 0.054, 0.012, 0.978, 192.0, 0.0, 0.0, 0.0, 0.0, 0.0, 0.0, 0.0, 0.0, 0.0, 1.708991112144695E9, 0.0, 2024-02-26 18:45:12.144
21.0, 187500.0, 187500.0, 187500.0, -182277.82783243989, 187500.0, 14908.971179601096, -182182.8552702493, -182156.56961876986, 0.054, 0.012, 0.978, 192.0, 0.0, 0.0, 0.0, 0.0, 0.0, 0.0, 0.0, 0.0, 0.0, 1.708991112149727E9, 0.0, 2024-02-26 18:45:12.149
22.0, 187500.0, 187500.0, 187500.0, -182415.51457828458, 187500.0, 15801.632797912695, -182329.99680399857, -182303.1300071633, 0.054, 0.012, 0.978, 192.0, 0.0, 0.0, 0.0, 0.0, 0.0, 0.0, 0.0, 0.0, 0.0, 1.708991112153715E9, 0.0, 2024-02-26 18:45:12.153
23.0, 187500.0, 187500.0, 187500.0, -182290.1659953792, 187500.0, 15086.064050920493, -182219.69094511165, -182195.17108144416, 0.054, 0.012, 0.978, 192.0, 0.0, 0.0, 0.0, 0.0, 0.0, 0.0, 0.0, 0.0, 0.0, 1.708991112157716E9, 0.0, 2024-02-26 18:45:12.157
24.0, 187500.0, 187500.0, 187500.0, -182152.00986290097, 187500.0, 14430.040351157231, -182103.5289291774, -182082.69710334507, 0.054, 0.012, 0.978, 192.0, 0.0, 0.0, 0.0, 0.0, 0.0, 0.0, 0.0, 0.0, 0.0, 1.708991112161719E9, 0.0, 2024-02-26 18:45:12.161
25.0, 187500.0, 187500.0, 187500.0, -182188.71142729657, 187500.0, 14752.620727136224, -182139.85051391728, -182118.32578400683, 0.054, 0.012, 0.978, 192.0, 0.0, 0.0, 0.0, 0.0, 0.0, 0.0, 0.0, 0.0, 0.0, 1.708991112164723E9, 0.0, 2024-02-26 18:45:12.164
26.0, 187500.0, 187500.0, 187500.0, -182322.4866178616, 187500.0, 15734.689323269049, -182283.25930634254, -182260.52758223147, 0.054, 0.012, 0.978, 192.0, 0.0, 0.0, 0.0, 0.0, 0.0, 0.0, 0.0, 0.0, 0.0, 1.708991112168719E9, 0.0, 2024-02-26 18:45:12.168
27.0, 187500.0, 187500.0, 187500.0, -182237.72880288708, 187500.0, 15294.605826688508, -182220.07092476738, -182195.37224714426, 0.056, 0.016, 0.978, 192.0, 1.0, 192.0, 0.0, 128.0, 30.0, 144.0, 0.0, 0.0, 0.0, 1.70899111217272E9, 0.0, 2024-02-26 18:45:12.172
28.0, 187500.0, 187500.0, 187500.0, -181981.04136956233, 187500.0, 14475.459095890415, -182132.7873626694, -182108.8933478467, 0.056, 0.016, 0.978, 192.0, 0.0, 0.0, 0.0, 0.0, 0.0, 0.0, 0.0, 0.0, 0.0, 1.708991112176741E9, 0.0, 2024-02-26 18:45:12.176
29.0, 187500.0, 187500.0, 187500.0, -181958.71197685148, 187500.0, 14628.903821576097, -182110.16739728063, -182094.7893970954, 0.056, 0.016, 0.978, 192.0, 0.0, 0.0, 0.0, 0.0, 0.0, 0.0, 0.0, 0.0, 0.0, 1.708991112181734E9, 0.0, 2024-02-26 18:45:12.181
30.0, 187500.0, 187500.0, 187500.0, -182483.68739887327, 187500.0, 15624.94225799349, -182239.74045988804, -182224.78714284746, 0.056, 0.016, 0.978, 192.0, 0.0, 0.0, 0.0, 0.0, 0.0, 0.0, 0.0, 0.0, 0.0, 1.70899111218573E9, 0.0, 2024-02-26 18:45:12.185
31.0, 187500.0, 187500.0, 187500.0, -182707.94245099337, 187500.0, 15490.2059424169, -182217.92515729967, -182202.59186060334, 0.056, 0.016, 0.978, 192.0, 0.0, 0.0, 0.0, 0.0, 0.0, 0.0, 0.0, 0.0, 0.0, 1.708991112189723E9, 0.0, 2024-02-26 18:45:12.189
32.0, 187500.0, 187500.0, 187500.0, -182562.56670505606, 187500.0, 14539.005105376853, -182116.87292061723, -182093.5376994059, 0.056, 0.016, 0.978, 192.0, 0.0, 0.0, 0.0, 0.0, 0.0, 0.0, 0.0, 0.0, 0.0, 1.708991112192721E9, 0.0, 2024-02-26 18:45:12.192
33.0, 187500.0, 187500.0, 187500.0, -182537.62215824393, 187500.0, 14501.00713980283, -182104.490054189, -182085.91575454662, 0.056, 0.016, 0.978, 192.0, 0.0, 0.0, 0.0, 0.0, 0.0, 0.0, 0.0, 0.0, 0.0, 1.708991112196724E9, 0.0, 2024-02-26 18:45:12.196
34.0, 187500.0, 187500.0, 187500.0, -182650.25259855422, 187500.0, 15378.558978862642, -182216.6511078657, -182199.50731986848, 0.056, 0.016, 0.978, 192.0, 0.0, 0.0, 0.0, 0.0, 0.0, 0.0, 0.0, 0.0, 0.0, 1.708991112200765E9, 0.0, 2024-02-26 18:45:12.200
35.0, 187500.0, 187500.0, 187500.0, -182678.05816865663, 187500.0, 15597.13668789109, -182257.37598626327, -182238.6228726653, 0.056, 0.016, 0.978, 192.0, 0.0, 0.0, 0.0, 0.0, 0.0, 0.0, 0.0, 0.0, 0.0, 1.708991112205758E9, 0.0, 2024-02-26 18:45:12.205
36.0, 187500.0, 187500.0, 187500.0, -182501.09940780397, 187500.0, 14599.041890983808, -182146.62309248725, -182119.75629565195, 0.056, 0.016, 0.978, 192.0, 0.0, 0.0, 0.0, 0.0, 0.0, 0.0, 0.0, 0.0, 0.0, 1.708991112209767E9, 0.0, 2024-02-26 18:45:12.209
37.0, 187500.0, 187500.0, 187500.0, -182437.7545640176, 187500.0, 14396.155106562986, -182097.35984770773, -182081.8700888002, 0.056, 0.016, 0.978, 192.0, 1.0, 192.0, 0.0, 128.0, 30.0, 144.0, 0.0, 0.0, 0.0, 1.708991112213759E9, 0.0, 2024-02-26 18:45:12.213
38.0, 187500.0, 187500.0, 187500.0, -182541.24314084568, 187500.0, 15151.532310430088, -182198.76971230147, -182184.9563342281, 0.056, 0.016, 0.978, 192.0, 0.0, 0.0, 0.0, 0.0, 0.0, 0.0, 0.0, 0.0, 0.0, 1.708991112217766E9, 0.0, 2024-02-26 18:45:12.217
39.0, 187500.0, 187500.0, 187500.0, -182608.25367072268, 187500.0, 15656.078238019734, -182275.59265799436, -182261.68987294316, 0.056, 0.016, 0.978, 192.0, 0.0, 0.0, 0.0, 0.0, 0.0, 0.0, 0.0, 0.0, 0.0, 1.70899111222076E9, 0.0, 2024-02-26 18:45:12.220
40.0, 187500.0, 187500.0, 187500.0, -182443.1636861758, 187500.0, 14684.179685614072, -182138.86703716125, -182121.87971137522, 0.056, 0.016, 0.978, 192.0, 0.0, 0.0, 0.0, 0.0, 0.0, 0.0, 0.0, 0.0, 0.0, 1.70899111222477E9, 0.0, 2024-02-26 18:45:12.224
41.0, 187500.0, 187500.0, 187500.0, -182373.0462638195, 187500.0, 14305.094099652064, -182087.90505980316, -182068.68255957158, 0.056, 0.016, 0.978, 192.0, 0.0, 0.0, 0.0, 0.0, 0.0, 0.0, 0.0, 0.0, 0.0, 1.708991112228763E9, 0.0, 2024-02-26 18:45:12.228
42.0, 187500.0, 187500.0, 187500.0, -182448.572808334, 187500.0, 14867.262824447493, -182163.63277001772, -182145.90783666467, 0.056, 0.016, 0.978, 192.0, 0.0, 0.0, 0.0, 0.0, 0.0, 0.0, 0.0, 0.0, 0.0, 1.708991112232758E9, 0.0, 2024-02-26 18:45:12.232
43.0, 187500.0, 187500.0, 187500.0, -182555.2800363636, 187500.0, 15611.531211320307, -182278.87836442929, -182260.50523048703, 0.056, 0.016, 0.978, 192.0, 0.0, 0.0, 0.0, 0.0, 0.0, 0.0, 0.0, 0.0, 0.0, 1.708991112237764E9, 0.0, 2024-02-26 18:45:12.237
44.0, 187500.0, 187500.0, 187500.0, -182404.18224384575, 187500.0, 14763.237805752493, -182157.754261226, -182136.74362143798, 0.056, 0.016, 0.978, 192.0, 0.0, 0.0, 0.0, 0.0, 0.0, 0.0, 0.0, 0.0, 0.0, 1.7089911122418E9, 0.0, 2024-02-26 18:45:12.241
45.0, 187500.0, 187500.0, 187500.0, -182301.8783094738, 187500.0, 14241.659848887903, -182090.36375169322, -182076.215097453, 0.056, 0.016, 0.978, 192.0, 0.0, 0.0, 0.0, 0.0, 0.0, 0.0, 0.0, 0.0, 0.0, 1.708991112245801E9, 0.0, 2024-02-26 18:45:12.245
46.0, 187500.0, 187500.0, 187500.0, -182357.9364845677, 187500.0, 14694.014453174408, -182141.4374877736, -182130.90981613516, 0.056, 0.016, 0.978, 192.0, 0.0, 0.0, 0.0, 0.0, 0.0, 0.0, 0.0, 0.0, 0.0, 1.708991112248799E9, 0.0, 2024-02-26 18:45:12.248
47.0, 187500.0, 187500.0, 187500.0, -182497.29961124656, 187500.0, 15655.67590661954, -182291.3729895798, -182279.43715804067, 0.06, 0.018000000000000002, 0.982, 192.0, 1.0, 224.0, 0.0, 144.0, 30.0, 176.0, 0.0, 0.0, 0.0, 1.708991112252801E9, 0.0, 2024-02-26 18:45:12.252
48.0, 187500.0, 187500.0, 187500.0, -182390.4582727502, 187500.0, 15049.228376058147, -182198.56854660137, -182182.51999408245, 0.06, 0.018000000000000002, 0.982, 192.0, 0.0, 0.0, 0.0, 0.0, 0.0, 0.0, 0.0, 0.0, 0.0, 1.708991112256807E9, 0.0, 2024-02-26 18:45:12.256
49.0, 187500.0, 187500.0, 187500.0, -182247.6753291697, 187500.0, 14355.385524676505, -182108.40160946865, -182085.28990570188, 0.06, 0.018000000000000002, 0.982, 192.0, 0.0, 0.0, 0.0, 0.0, 0.0, 0.0, 0.0, 0.0, 0.0, 1.708991112260815E9, 0.0, 2024-02-26 18:45:12.260
50.0, 187500.0, 187500.0, 187500.0, -182250.37989024876, 187500.0, 14629.462615187482, -182120.24803402997, -182105.89821408968, 0.06, 0.018000000000000002, 0.982, 192.0, 0.0, 0.0, 0.0, 0.0, 0.0, 0.0, 0.0, 0.0, 0.0, 1.708991112265805E9, 0.0, 2024-02-26 18:45:12.265
51.0, 187500.0, 187500.0, 187500.0, -182418.7108777417, 187500.0, 15667.142351525112, -182292.08824540238, -182278.00664639554, 0.06, 0.018000000000000002, 0.982, 192.0, 0.0, 0.0, 0.0, 0.0, 0.0, 0.0, 0.0, 0.0, 0.0, 1.708991112269832E9, 0.0, 2024-02-26 18:45:12.269
52.0, 187500.0, 187500.0, 187500.0, -182368.3971009728, 187500.0, 15343.757312745729, -182248.10001231433, -182232.23027375108, 0.06, 0.018000000000000002, 0.982, 192.0, 0.0, 0.0, 0.0, 0.0, 0.0, 0.0, 0.0, 0.0, 0.0, 1.708991112273809E9, 0.0, 2024-02-26 18:45:12.273
53.0, 187500.0, 187500.0, 187500.0, -182216.1146659988, 187500.0, 14479.996500014842, -182101.1372925207, -182083.8817458012, 0.06, 0.018000000000000002, 0.982, 192.0, 0.0, 0.0, 0.0, 0.0, 0.0, 0.0, 0.0, 0.0, 0.0, 1.708991112276813E9, 0.0, 2024-02-26 18:45:12.276
54.0, 187500.0, 187500.0, 187500.0, -182218.88628231126, 187500.0, 14552.63966949459, -182110.32385949182, -182093.29183021688, 0.06, 0.018000000000000002, 0.982, 192.0, 0.0, 0.0, 0.0, 0.0, 0.0, 0.0, 0.0, 0.0, 0.0, 1.708991112280851E9, 0.0, 2024-02-26 18:45:12.280
55.0, 187500.0, 187500.0, 187500.0, -182368.26299050607, 187500.0, 15500.130116955057, -182269.13300384677, -182252.39154724975, 0.06, 0.018000000000000002, 0.982, 192.0, 0.0, 0.0, 0.0, 0.0, 0.0, 0.0, 0.0, 0.0, 0.0, 1.708991112284845E9, 0.0, 2024-02-26 18:45:12.284
56.0, 187500.0, 187500.0, 187500.0, -182370.72168239614, 187500.0, 15469.664689262474, -182278.49838477356, -182261.4216520097, 0.06, 0.018000000000000002, 0.982, 192.0, 0.0, 0.0, 0.0, 0.0, 0.0, 0.0, 0.0, 0.0, 0.0, 1.708991112288858E9, 0.0, 2024-02-26 18:45:12.288
57.0, 187500.0, 187500.0, 187500.0, -182208.53742462845, 187500.0, 14497.095584523153, -182121.72324916403, -182101.80784485434, 0.056, 0.02, 0.982, 192.0, 1.0, 192.0, 0.0, 160.0, 30.0, 176.0, 0.0, 0.0, 0.0, 1.708991112293873E9, 0.0, 2024-02-26 18:45:12.293
58.0, 187500.0, 187500.0, 187500.0, -182164.97387468503, 187500.0, 14384.532199446227, -182084.99933302397, -182063.31814090232, 0.056, 0.02, 0.982, 192.0, 0.0, 0.0, 0.0, 0.0, 0.0, 0.0, 0.0, 0.0, 0.0, 1.708991112297851E9, 0.0, 2024-02-26 18:45:12.297
59.0, 187500.0, 187500.0, 187500.0, -182263.47801249957, 187500.0, 15228.087035189516, -182192.77944478745, -182170.98649394352, 0.056, 0.02, 0.982, 192.0, 0.0, 0.0, 0.0, 0.0, 0.0, 0.0, 0.0, 0.0, 0.0, 1.70899111230085E9, 0.0, 2024-02-26 18:45:12.300
60.0, 187500.0, 187500.0, 187500.0, -182311.55661482294, 187500.0, 15540.854995352627, -182255.43138449566, -182231.4032592062, 0.056, 0.02, 0.982, 192.0, 0.0, 0.0, 0.0, 0.0, 0.0, 0.0, 0.0, 0.0, 0.0, 1.708991112304849E9, 0.0, 2024-02-26 18:45:12.304
61.0, 187500.0, 187500.0, 187500.0, -182091.54839414937, 187500.0, 14523.224773791406, -182147.5842174988, -182112.8943101042, 0.056, 0.02, 0.982, 192.0, 0.0, 0.0, 0.0, 0.0, 0.0, 0.0, 0.0, 0.0, 0.0, 1.708991112308896E9, 0.0, 2024-02-26 18:45:12.308
62.0, 187500.0, 187500.0, 187500.0, -181890.69561847398, 187500.0, 14287.100945365542, -182096.6222401407, -182082.54064113388, 0.056, 0.02, 0.982, 192.0, 0.0, 0.0, 0.0, 0.0, 0.0, 0.0, 0.0, 0.0, 0.0, 1.708991112312892E9, 0.0, 2024-02-26 18:45:12.312
63.0, 187500.0, 187500.0, 187500.0, -182204.17883445966, 187500.0, 15019.098224532394, -182171.500584066, -182158.02248215946, 0.056, 0.02, 0.982, 192.0, 0.0, 0.0, 0.0, 0.0, 0.0, 0.0, 0.0, 0.0, 0.0, 1.708991112316892E9, 0.0, 2024-02-26 18:45:12.316
64.0, 187500.0, 187500.0, 187500.0, -182686.99886643875, 187500.0, 15640.364961667654, -182265.10968984483, -182250.69281467114, 0.056, 0.02, 0.982, 192.0, 0.0, 0.0, 0.0, 0.0, 0.0, 0.0, 0.0, 0.0, 0.0, 1.70899111232189E9, 0.0, 2024-02-26 18:45:12.321
65.0, 187500.0, 187500.0, 187500.0, -182603.89508055392, 187500.0, 14713.080491194785, -182142.55507499637, -182123.66785093164, 0.056, 0.02, 0.982, 192.0, 0.0, 0.0, 0.0, 0.0, 0.0, 0.0, 0.0, 0.0, 0.0, 1.70899111232594E9, 0.0, 2024-02-26 18:45:12.325
66.0, 187500.0, 187500.0, 187500.0, -182511.7388381647, 187500.0, 14294.633483246982, -182097.5833651523, -182068.79431829386, 0.056, 0.02, 0.982, 192.0, 0.0, 0.0, 0.0, 0.0, 0.0, 0.0, 0.0, 0.0, 0.0, 1.708991112328917E9, 0.0, 2024-02-26 18:45:12.328
67.0, 187500.0, 187500.0, 187500.0, -182573.7872807726, 187500.0, 14842.139463679727, -182168.57250554234, -182140.29754880638, 0.058, 0.018000000000000002, 0.982, 192.0, 1.0, 208.0, 0.0, 144.0, 30.0, 176.0, 0.0, 0.0, 0.0, 1.708991112332898E9, 0.0, 2024-02-26 18:45:12.332
68.0, 187500.0, 187500.0, 187500.0, -182708.59065158258, 187500.0, 15678.050002819302, -182307.10861767633, -182282.34288481987, 0.058, 0.018000000000000002, 0.982, 192.0, 0.0, 0.0, 0.0, 0.0, 0.0, 0.0, 0.0, 0.0, 0.0, 1.708991112336891E9, 0.0, 2024-02-26 18:45:12.336
69.0, 187500.0, 187500.0, 187500.0, -182585.67840882283, 187500.0, 14893.056737548917, -182190.253697664, -182166.6502555192, 0.058, 0.018000000000000002, 0.982, 192.0, 0.0, 0.0, 0.0, 0.0, 0.0, 0.0, 0.0, 0.0, 0.0, 1.708991112340909E9, 0.0, 2024-02-26 18:45:12.340
70.0, 187500.0, 187500.0, 187500.0, -182466.94594227624, 187500.0, 14293.247675090752, -182087.7262458475, -182073.8681642852, 0.058, 0.018000000000000002, 0.982, 192.0, 0.0, 0.0, 0.0, 0.0, 0.0, 0.0, 0.0, 0.0, 0.0, 1.708991112344905E9, 0.0, 2024-02-26 18:45:12.344
71.0, 187500.0, 187500.0, 187500.0, -182498.7301228917, 187500.0, 14670.52276975188, -182126.03713584392, -182110.77089438093, 0.058, 0.018000000000000002, 0.982, 192.0, 0.0, 0.0, 0.0, 0.0, 0.0, 0.0, 0.0, 0.0, 0.0, 1.708991112348902E9, 0.0, 2024-02-26 18:45:12.348
72.0, 187500.0, 187500.0, 187500.0, -182637.89208387042, 187500.0, 15644.522386136341, -182274.65388472725, -182258.15829731923, 0.058, 0.018000000000000002, 0.982, 192.0, 0.0, 0.0, 0.0, 0.0, 0.0, 0.0, 0.0, 0.0, 0.0, 1.708991112353893E9, 0.0, 2024-02-26 18:45:12.353
73.0, 187500.0, 187500.0, 187500.0, -182543.43361180232, 187500.0, 15120.910420526317, -182200.89312802473, -182181.78238651544, 0.058, 0.018000000000000002, 0.982, 192.0, 0.0, 0.0, 0.0, 0.0, 0.0, 0.0, 0.0, 0.0, 0.0, 1.708991112356893E9, 0.0, 2024-02-26 18:45:12.356
74.0, 187500.0, 187500.0, 187500.0, -182393.4534065072, 187500.0, 14395.171629806951, -182106.97109782352, -182083.3229521898, 0.058, 0.018000000000000002, 0.982, 192.0, 0.0, 0.0, 0.0, 0.0, 0.0, 0.0, 0.0, 0.0, 0.0, 1.708991112360999E9, 0.0, 2024-02-26 18:45:12.360
75.0, 187500.0, 187500.0, 187500.0, -182389.07246459395, 187500.0, 14637.79981586931, -182095.05761802883, -182077.1315189757, 0.058, 0.018000000000000002, 0.982, 192.0, 0.0, 0.0, 0.0, 0.0, 0.0, 0.0, 0.0, 0.0, 0.0, 1.708991112364992E9, 0.0, 2024-02-26 18:45:12.364
76.0, 187500.0, 187500.0, 187500.0, -182514.26458528813, 187500.0, 15678.318223752765, -182227.78227660447, -182209.94558452914, 0.058, 0.018000000000000002, 0.982, 192.0, 0.0, 0.0, 0.0, 0.0, 0.0, 0.0, 0.0, 0.0, 0.0, 1.708991112369001E9, 0.0, 2024-02-26 18:45:12.369
77.0, 187500.0, 187500.0, 187500.0, -182468.89054404385, 187500.0, 15466.49074154982, -182205.02820074896, -182182.8552702493, 0.056, 0.018000000000000002, 0.974, 192.0, 1.0, 192.0, 0.0, 144.0, 30.0, 112.0, 0.0, 0.0, 0.0, 1.708991112372999E9, 0.0, 2024-02-26 18:45:12.372
78.0, 187500.0, 187500.0, 187500.0, -182309.74612352208, 187500.0, 14592.470478113948, -182112.8943101042, -182089.08970225928, 0.056, 0.018000000000000002, 0.974, 192.0, 0.0, 0.0, 0.0, 0.0, 0.0, 0.0, 0.0, 0.0, 0.0, 1.708991112377011E9, 0.0, 2024-02-26 18:45:12.377
79.0, 187500.0, 187500.0, 187500.0, -182300.7830739955, 187500.0, 14647.344010751727, -182098.2315657415, -182083.8817458012, 0.056, 0.018000000000000002, 0.974, 192.0, 0.0, 0.0, 0.0, 0.0, 0.0, 0.0, 0.0, 0.0, 0.0, 1.708991112382007E9, 0.0, 2024-02-26 18:45:12.382
80.0, 187500.0, 187500.0, 187500.0, -182418.73322948616, 187500.0, 15546.107655299624, -182221.0096980345, -182206.99515426104, 0.056, 0.018000000000000002, 0.974, 192.0, 0.0, 0.0, 0.0, 0.0, 0.0, 0.0, 0.0, 0.0, 0.0, 1.708991112384995E9, 0.0, 2024-02-26 18:45:12.384
81.0, 187500.0, 187500.0, 187500.0, -182422.46597081018, 187500.0, 15615.2863043888, -182232.63260515127, -182217.6122328773, 0.056, 0.018000000000000002, 0.974, 192.0, 0.0, 0.0, 0.0, 0.0, 0.0, 0.0, 0.0, 0.0, 0.0, 1.708991112388998E9, 0.0, 2024-02-26 18:45:12.388
82.0, 187500.0, 187500.0, 187500.0, -182271.1223091033, 187500.0, 14645.667629917578, -182113.05077231536, -182094.56587965082, 0.056, 0.018000000000000002, 0.974, 192.0, 0.0, 0.0, 0.0, 0.0, 0.0, 0.0, 0.0, 0.0, 0.0, 1.708991112393004E9, 0.0, 2024-02-26 18:45:12.393
83.0, 187500.0, 187500.0, 187500.0, -182222.52961665747, 187500.0, 14477.001366257831, -182095.39289419568, -182079.85843179925, 0.056, 0.018000000000000002, 0.974, 192.0, 0.0, 0.0, 0.0, 0.0, 0.0, 0.0, 0.0, 0.0, 0.0, 1.708991112396999E9, 0.0, 2024-02-26 18:45:12.396
84.0, 187500.0, 187500.0, 187500.0, -182339.20572271416, 187500.0, 15251.310497678578, -182208.87270079527, -182195.55106109992, 0.056, 0.018000000000000002, 0.974, 192.0, 0.0, 0.0, 0.0, 0.0, 0.0, 0.0, 0.0, 0.0, 0.0, 1.708991112400995E9, 0.0, 2024-02-26 18:45:12.400
85.0, 187500.0, 187500.0, 187500.0, -182394.83921466343, 187500.0, 15616.180374167012, -182273.268076571, -182258.73944267505, 0.056, 0.018000000000000002, 0.974, 192.0, 0.0, 0.0, 0.0, 0.0, 0.0, 0.0, 0.0, 0.0, 0.0, 1.708991112404991E9, 0.0, 2024-02-26 18:45:12.404
86.0, 187500.0, 187500.0, 187500.0, -182231.24679699502, 187500.0, 14600.137126462118, -182135.15664758167, -182115.95649909455, 0.056, 0.018000000000000002, 0.974, 192.0, 0.0, 0.0, 0.0, 0.0, 0.0, 0.0, 0.0, 0.0, 0.0, 1.708991112410022E9, 0.0, 2024-02-26 18:45:12.410
87.0, 187500.0, 187500.0, 187500.0, -182172.52876431093, 187500.0, 14288.039718632666, -182102.4336936991, -182090.29669645987, 0.052000000000000005, 0.022, 0.98, 192.0, 1.0, 160.0, 0.0, 176.0, 30.0, 160.0, 0.0, 0.0, 0.0, 1.708991112413003E9, 0.0, 2024-02-26 18:45:12.413
88.0, 187500.0, 187500.0, 187500.0, -182260.30406478693, 187500.0, 14939.14603461576, -182190.4548633641, -182179.2119359031, 0.052000000000000005, 0.022, 0.98, 192.0, 0.0, 0.0, 0.0, 0.0, 0.0, 0.0, 0.0, 0.0, 0.0, 1.70899111241699E9, 0.0, 2024-02-26 18:45:12.416
89.0, 187500.0, 187500.0, 187500.0, -182338.51281863605, 187500.0, 15626.059845216258, -182276.91141091724, -182264.57324797788, 0.052000000000000005, 0.022, 0.98, 192.0, 0.0, 0.0, 0.0, 0.0, 0.0, 0.0, 0.0, 0.0, 0.0, 1.708991112420999E9, 0.0, 2024-02-26 18:45:12.420
90.0, 187500.0, 187500.0, 187500.0, -182187.59384007382, 187500.0, 14758.879215583709, -182148.9923773995, -182130.82040915734, 0.052000000000000005, 0.022, 0.98, 192.0, 0.0, 0.0, 0.0, 0.0, 0.0, 0.0, 0.0, 0.0, 0.0, 1.708991112425007E9, 0.0, 2024-02-26 18:45:12.425
91.0, 187500.0, 187500.0, 187500.0, -182086.228678969, 187500.0, 14317.208745146841, -182088.4191499256, -182072.48235612898, 0.052000000000000005, 0.022, 0.98, 192.0, 0.0, 0.0, 0.0, 0.0, 0.0, 0.0, 0.0, 0.0, 0.0, 1.708991112429002E9, 0.0, 2024-02-26 18:45:12.429
92.0, 187500.0, 187500.0, 187500.0, -182143.56090349687, 187500.0, 14833.89166997572, -182141.10221160678, -182129.30049053437, 0.052000000000000005, 0.022, 0.98, 192.0, 0.0, 0.0, 0.0, 0.0, 0.0, 0.0, 0.0, 0.0, 0.0, 1.708991112432995E9, 0.0, 2024-02-26 18:45:12.432
93.0, 187500.0, 187500.0, 187500.0, -182267.56838173492, 187500.0, 15739.137320415655, -182274.98916089407, -182261.44400375415, 0.052000000000000005, 0.022, 0.98, 192.0, 0.0, 0.0, 0.0, 0.0, 0.0, 0.0, 0.0, 0.0, 0.0, 1.708991112436992E9, 0.0, 2024-02-26 18:45:12.436
94.0, 187500.0, 187500.0, 187500.0, -182107.66400190163, 187500.0, 15046.948498123706, -182180.5530405704, -182158.98360717102, 0.052000000000000005, 0.022, 0.98, 192.0, 0.0, 0.0, 0.0, 0.0, 0.0, 0.0, 0.0, 0.0, 0.0, 1.708991112439995E9, 0.0, 2024-02-26 18:45:12.439
95.0, 187500.0, 187500.0, 187500.0, -181846.01448130782, 187500.0, 14430.152109879507, -182107.8428158573, -182081.0207225109, 0.052000000000000005, 0.022, 0.98, 192.0, 0.0, 0.0, 0.0, 0.0, 0.0, 0.0, 0.0, 0.0, 0.0, 1.708991112444995E9, 0.0, 2024-02-26 18:45:12.444
96.0, 187500.0, 187500.0, 187500.0, -182081.49010914448, 187500.0, 14776.425334981124, -182114.36952523823, -182100.4443884426, 0.052000000000000005, 0.022, 0.98, 192.0, 0.0, 0.0, 0.0, 0.0, 0.0, 0.0, 0.0, 0.0, 0.0, 1.708991112448994E9, 0.0, 2024-02-26 18:45:12.448
97.0, 187500.0, 187500.0, 187500.0, -182651.99603462173, 187500.0, 15731.671837767582, -182259.27588454197, -182244.79195413494, 0.05, 0.018000000000000002, 0.982, 192.0, 1.0, 144.0, 0.0, 144.0, 30.0, 176.0, 0.0, 0.0, 0.0, 1.708991112452991E9, 0.0, 2024-02-26 18:45:12.452
98.0, 187500.0, 187500.0, 187500.0, -182695.40312235395, 187500.0, 15263.916881551371, -182191.17011918666, -182171.72410151054, 0.05, 0.018000000000000002, 0.982, 192.0, 0.0, 0.0, 0.0, 0.0, 0.0, 0.0, 0.0, 0.0, 0.0, 1.708991112456993E9, 0.0, 2024-02-26 18:45:12.456
99.0, 187500.0, 187500.0, 187500.0, -182543.38890831338, 187500.0, 14461.802180028222, -182092.44246392758, -182073.48818462947, 0.05, 0.018000000000000002, 0.982, 192.0, 0.0, 0.0, 0.0, 0.0, 0.0, 0.0, 0.0, 0.0, 0.0, 1.708991112461018E9, 0.0, 2024-02-26 18:45:12.461
100.0, 187500.0, 187500.0, 187500.0, -182547.41222231535, 187500.0, 14608.384920166127, -182098.54449016388, -182090.69902786007, 0.05, 0.018000000000000002, 0.982, 192.0, 0.0, 0.0, 0.0, 0.0, 0.0, 0.0, 0.0, 0.0, 0.0, 1.708991112465019E9, 0.0, 2024-02-26 18:45:12.465
101.0, 187500.0, 187500.0, 187500.0, -182690.99982869625, 187500.0, 15578.18240859299, -182247.89884661423, -182238.1087825428, 0.05, 0.018000000000000002, 0.982, 192.0, 0.0, 0.0, 0.0, 0.0, 0.0, 0.0, 0.0, 0.0, 0.0, 1.708991112468012E9, 0.0, 2024-02-26 18:45:12.468
102.0, 187500.0, 187500.0, 187500.0, -182646.5198572302, 187500.0, 15424.044778829191, -182217.72399159957, -182204.98349726005, 0.05, 0.018000000000000002, 0.982, 192.0, 0.0, 0.0, 0.0, 0.0, 0.0, 0.0, 0.0, 0.0, 0.0, 1.708991112472012E9, 0.0, 2024-02-26 18:45:12.472
103.0, 187500.0, 187500.0, 187500.0, -182474.38907317986, 187500.0, 14511.668921908013, -182097.5833651523, -182073.75640556295, 0.05, 0.018000000000000002, 0.982, 192.0, 0.0, 0.0, 0.0, 0.0, 0.0, 0.0, 0.0, 0.0, 0.0, 1.708991112477026E9, 0.0, 2024-02-26 18:45:12.477
104.0, 187500.0, 187500.0, 187500.0, -182445.33180538798, 187500.0, 14497.408508945528, -182080.1266527327, -182062.91580950213, 0.05, 0.018000000000000002, 0.982, 192.0, 0.0, 0.0, 0.0, 0.0, 0.0, 0.0, 0.0, 0.0, 0.0, 1.708991112481117E9, 0.0, 2024-02-26 18:45:12.481
105.0, 187500.0, 187500.0, 187500.0, -182573.60846681698, 187500.0, 15414.522935691231, -182209.36443917328, -182196.04279947793, 0.05, 0.018000000000000002, 0.982, 192.0, 0.0, 0.0, 0.0, 0.0, 0.0, 0.0, 0.0, 0.0, 0.0, 1.708991112485064E9, 0.0, 2024-02-26 18:45:12.485
106.0, 187500.0, 187500.0, 187500.0, -182599.91647004086, 187500.0, 15606.904400218058, -182244.43432622365, -182228.38577370477, 0.056, 0.018000000000000002, 0.984, 192.0, 1.0, 192.0, 0.0, 144.0, 30.0, 192.0, 0.0, 0.0, 0.0, 1.708991112489061E9, 0.0, 2024-02-26 18:45:12.489
107.0, 187500.0, 187500.0, 187500.0, -182426.82456097897, 187500.0, 14599.17600145054, -182112.24610951496, -182090.40845518213, 0.056, 0.018000000000000002, 0.984, 192.0, 0.0, 0.0, 0.0, 0.0, 0.0, 0.0, 0.0, 0.0, 0.0, 1.708991112492093E9, 0.0, 2024-02-26 18:45:12.492
108.0, 187500.0, 187500.0, 187500.0, -182376.98017084363, 187500.0, 14380.978272077833, -182080.39487366617, -182063.2734374134, 0.056, 0.018000000000000002, 0.984, 192.0, 0.0, 0.0, 0.0, 0.0, 0.0, 0.0, 0.0, 0.0, 0.0, 1.708991112496067E9, 0.0, 2024-02-26 18:45:12.496
109.0, 187500.0, 187500.0, 187500.0, -182495.8690996014, 187500.0, 15110.628618076877, -182198.88147102375, -182183.63758130523, 0.056, 0.018000000000000002, 0.984, 192.0, 0.0, 0.0, 0.0, 0.0, 0.0, 0.0, 0.0, 0.0, 0.0, 1.708991112500068E9, 0.0, 2024-02-26 18:45:12.500
110.0, 187500.0, 187500.0, 187500.0, -182569.7863185151, 187500.0, 15570.448705011453, -182281.3147045749, -182266.38373927877, 0.056, 0.018000000000000002, 0.984, 192.0, 0.0, 0.0, 0.0, 0.0, 0.0, 0.0, 0.0, 0.0, 0.0, 1.708991112505062E9, 0.0, 2024-02-26 18:45:12.505
111.0, 187500.0, 187500.0, 187500.0, -182405.41158979078, 187500.0, 14571.973928448431, -182123.6902026761, -182106.4346559566, 0.056, 0.018000000000000002, 0.984, 192.0, 0.0, 0.0, 0.0, 0.0, 0.0, 0.0, 0.0, 0.0, 0.0, 1.708991112509061E9, 0.0, 2024-02-26 18:45:12.509
112.0, 187500.0, 187500.0, 187500.0, -182335.51768487904, 187500.0, 14200.219714667764, -182070.0683677278, -182055.94206523206, 0.056, 0.018000000000000002, 0.984, 192.0, 0.0, 0.0, 0.0, 0.0, 0.0, 0.0, 0.0, 0.0, 0.0, 1.708991112513082E9, 0.0, 2024-02-26 18:45:12.513
113.0, 187500.0, 187500.0, 187500.0, -182408.80905494798, 187500.0, 14783.868465884741, -182148.32182506585, -182136.63186271573, 0.056, 0.018000000000000002, 0.984, 192.0, 0.0, 0.0, 0.0, 0.0, 0.0, 0.0, 0.0, 0.0, 0.0, 1.708991112517082E9, 0.0, 2024-02-26 18:45:12.517
114.0, 187500.0, 187500.0, 187500.0, -182502.1722915378, 187500.0, 15525.745216100839, -182251.89980887173, -182238.3770034763, 0.056, 0.018000000000000002, 0.984, 192.0, 0.0, 0.0, 0.0, 0.0, 0.0, 0.0, 0.0, 0.0, 0.0, 1.708991112520075E9, 0.0, 2024-02-26 18:45:12.520
115.0, 187500.0, 187500.0, 187500.0, -182338.7363360806, 187500.0, 14694.886171208165, -182156.3013978364, -182123.17611255363, 0.056, 0.018000000000000002, 0.984, 192.0, 0.0, 0.0, 0.0, 0.0, 0.0, 0.0, 0.0, 0.0, 0.0, 1.708991112524099E9, 0.0, 2024-02-26 18:45:12.524
116.0, 187500.0, 187500.0, 187500.0, -182200.33433441335, 187500.0, 14190.720223274258, -182101.494920432, -182072.54941136236, 0.052000000000000005, 0.018000000000000002, 0.98, 192.0, 1.0, 160.0, 0.0, 144.0, 30.0, 160.0, 0.0, 0.0, 0.0, 1.708991112528088E9, 0.0, 2024-02-26 18:45:12.528
117.0, 187500.0, 187500.0, 187500.0, -182226.7540963595, 187500.0, 14648.059266574297, -182105.07119954482, -182090.00612378196, 0.052000000000000005, 0.018000000000000002, 0.98, 192.0, 0.0, 0.0, 0.0, 0.0, 0.0, 0.0, 0.0, 0.0, 0.0, 1.70899111253307E9, 0.0, 2024-02-26 18:45:12.533
118.0, 187500.0, 187500.0, 187500.0, -182346.38063268433, 187500.0, 15601.160001893044, -182231.9173493287, -182215.6005758763, 0.052000000000000005, 0.018000000000000002, 0.98, 192.0, 0.0, 0.0, 0.0, 0.0, 0.0, 0.0, 0.0, 0.0, 0.0, 1.708991112537113E9, 0.0, 2024-02-26 18:45:12.537
119.0, 187500.0, 187500.0, 187500.0, -182222.5519684019, 187500.0, 15016.438366942211, -182153.4403745461, -182125.85832188826, 0.052000000000000005, 0.018000000000000002, 0.98, 192.0, 0.0, 0.0, 0.0, 0.0, 0.0, 0.0, 0.0, 0.0, 0.0, 1.708991112541095E9, 0.0, 2024-02-26 18:45:12.541
120.0, 187500.0, 187500.0, 187500.0, -182079.90313528816, 187500.0, 14373.199865007386, -182093.11301626122, -182067.49791711546, 0.052000000000000005, 0.018000000000000002, 0.98, 192.0, 0.0, 0.0, 0.0, 0.0, 0.0, 0.0, 0.0, 0.0, 0.0, 1.708991112545115E9, 0.0, 2024-02-26 18:45:12.545
121.0, 187500.0, 187500.0, 187500.0, -182090.54256564888, 187500.0, 14659.033973101852, -182086.0722167578, -182072.48235612898, 0.052000000000000005, 0.018000000000000002, 0.98, 192.0, 0.0, 0.0, 0.0, 0.0, 0.0, 0.0, 0.0, 0.0, 0.0, 1.708991112549106E9, 0.0, 2024-02-26 18:45:12.549
122.0, 187500.0, 187500.0, 187500.0, -182225.2118259921, 187500.0, 15644.656496603073, -182227.22348299308, -182212.73955258605, 0.052000000000000005, 0.018000000000000002, 0.98, 192.0, 0.0, 0.0, 0.0, 0.0, 0.0, 0.0, 0.0, 0.0, 0.0, 1.708991112552137E9, 0.0, 2024-02-26 18:45:12.552
123.0, 187500.0, 187500.0, 187500.0, -182110.25680425845, 187500.0, 15282.357070727001, -182180.08365393683, -182155.496735036, 0.052000000000000005, 0.018000000000000002, 0.98, 192.0, 0.0, 0.0, 0.0, 0.0, 0.0, 0.0, 0.0, 0.0, 0.0, 1.708991112556133E9, 0.0, 2024-02-26 18:45:12.556
124.0, 187500.0, 187500.0, 187500.0, -181818.38772516107, 187500.0, 14446.535938565248, -182110.4356182141, -182072.86233578474, 0.052000000000000005, 0.018000000000000002, 0.98, 192.0, 0.0, 0.0, 0.0, 0.0, 0.0, 0.0, 0.0, 0.0, 0.0, 1.708991112561149E9, 0.0, 2024-02-26 18:45:12.561
125.0, 187500.0, 187500.0, 187500.0, -182025.6107480062, 187500.0, 14568.889387713598, -182103.7300948775, -182080.90896378865, 0.052000000000000005, 0.018000000000000002, 0.98, 192.0, 0.0, 0.0, 0.0, 0.0, 0.0, 0.0, 0.0, 0.0, 0.0, 1.708991112565142E9, 0.0, 2024-02-26 18:45:12.565
126.0, 187500.0, 187500.0, 187500.0, -182609.59477539003, 187500.0, 15519.911410798004, -182247.04948032493, -182226.7540963595, 0.058, 0.016, 0.976, 192.0, 1.0, 208.0, 0.0, 128.0, 30.0, 128.0, 0.0, 0.0, 0.0, 1.708991112569152E9, 0.0, 2024-02-26 18:45:12.569
127.0, 187500.0, 187500.0, 187500.0, -182775.5341262262, 187500.0, 15446.932965151425, -182247.25064602503, -182226.19530274812, 0.058, 0.016, 0.976, 192.0, 0.0, 0.0, 0.0, 0.0, 0.0, 0.0, 0.0, 0.0, 0.0, 1.708991112573142E9, 0.0, 2024-02-26 18:45:12.573
128.0, 187500.0, 187500.0, 187500.0, -182618.06608653857, 187500.0, 14475.548502868236, -182092.44246392758, -182070.4259956391, 0.058, 0.016, 0.976, 192.0, 0.0, 0.0, 0.0, 0.0, 0.0, 0.0, 0.0, 0.0, 0.0, 1.708991112577175E9, 0.0, 2024-02-26 18:45:12.577
129.0, 187500.0, 187500.0, 187500.0, -182615.47328418176, 187500.0, 14413.723577704857, -182097.15868200763, -182073.9799230075, 0.058, 0.016, 0.976, 192.0, 0.0, 0.0, 0.0, 0.0, 0.0, 0.0, 0.0, 0.0, 0.0, 1.708991112580127E9, 0.0, 2024-02-26 18:45:12.580
130.0, 187500.0, 187500.0, 187500.0, -182733.7810675837, 187500.0, 15256.674916347853, -182224.8094945919, -182201.11664546927, 0.058, 0.016, 0.976, 192.0, 0.0, 0.0, 0.0, 0.0, 0.0, 0.0, 0.0, 0.0, 0.0, 1.708991112584181E9, 0.0, 2024-02-26 18:45:12.584
131.0, 187500.0, 187500.0, 187500.0, -182763.21831503135, 187500.0, 15554.847187381649, -182262.20396306564, -182238.6228726653, 0.058, 0.016, 0.976, 192.0, 0.0, 0.0, 0.0, 0.0, 0.0, 0.0, 0.0, 0.0, 0.0, 1.708991112589153E9, 0.0, 2024-02-26 18:45:12.589
132.0, 187500.0, 187500.0, 187500.0, -182584.51611811115, 187500.0, 14579.729983774423, -182102.3889902102, -182082.76415857841, 0.058, 0.016, 0.976, 192.0, 0.0, 0.0, 0.0, 0.0, 0.0, 0.0, 0.0, 0.0, 0.0, 1.708991112593141E9, 0.0, 2024-02-26 18:45:12.593
133.0, 187500.0, 187500.0, 187500.0, -182525.82043717153, 187500.0, 14348.232966450807, -182062.75934729094, -182045.25793138242, 0.058, 0.016, 0.976, 192.0, 0.0, 0.0, 0.0, 0.0, 0.0, 0.0, 0.0, 0.0, 0.0, 1.70899111259714E9, 0.0, 2024-02-26 18:45:12.597
134.0, 187500.0, 187500.0, 187500.0, -182632.5053134567, 187500.0, 15054.413980771778, -182174.5627730564, -182155.67554899162, 0.058, 0.016, 0.976, 192.0, 0.0, 0.0, 0.0, 0.0, 0.0, 0.0, 0.0, 0.0, 0.0, 1.708991112600164E9, 0.0, 2024-02-26 18:45:12.600
135.0, 187500.0, 187500.0, 187500.0, -182713.6868493184, 187500.0, 15601.51762980433, -182264.46148925563, -182245.529561702, 0.058, 0.016, 0.976, 192.0, 0.0, 0.0, 0.0, 0.0, 0.0, 0.0, 0.0, 0.0, 0.0, 1.708991112604159E9, 0.0, 2024-02-26 18:45:12.604
136.0, 187500.0, 187500.0, 187500.0, -182554.25185611867, 187500.0, 14631.586030910736, -182123.35492650926, -182103.21600475503, 0.056, 0.016, 0.98, 192.0, 1.0, 192.0, 0.0, 128.0, 30.0, 160.0, 0.0, 0.0, 0.0, 1.708991112608166E9, 0.0, 2024-02-26 18:45:12.608
137.0, 187500.0, 187500.0, 187500.0, -182461.38035790686, 187500.0, 14196.375214621452, -182062.91580950213, -182046.88960872765, 0.056, 0.016, 0.98, 192.0, 0.0, 0.0, 0.0, 0.0, 0.0, 0.0, 0.0, 0.0, 0.0, 1.708991112612176E9, 0.0, 2024-02-26 18:45:12.612
138.0, 187500.0, 187500.0, 187500.0, -182530.87193141843, 187500.0, 14729.553726858347, -182131.24509230198, -182116.22472002803, 0.056, 0.016, 0.98, 192.0, 0.0, 0.0, 0.0, 0.0, 0.0, 0.0, 0.0, 0.0, 0.0, 1.708991112617189E9, 0.0, 2024-02-26 18:45:12.617
139.0, 187500.0, 187500.0, 187500.0, -182653.69476720033, 187500.0, 15531.131986514567, -182263.67917819967, -182248.6141024368, 0.056, 0.016, 0.98, 192.0, 0.0, 0.0, 0.0, 0.0, 0.0, 0.0, 0.0, 0.0, 0.0, 1.708991112621189E9, 0.0, 2024-02-26 18:45:12.621
140.0, 187500.0, 187500.0, 187500.0, -182519.67370744632, 187500.0, 14734.001724004953, -182150.4452407891, -182129.23343530102, 0.056, 0.016, 0.98, 192.0, 0.0, 0.0, 0.0, 0.0, 0.0, 0.0, 0.0, 0.0, 0.0, 1.708991112625209E9, 0.0, 2024-02-26 18:45:12.625
141.0, 187500.0, 187500.0, 187500.0, -182398.63901122083, 187500.0, 14150.330621043518, -182069.2190014385, -182042.84394298124, 0.056, 0.016, 0.98, 192.0, 0.0, 0.0, 0.0, 0.0, 0.0, 0.0, 0.0, 0.0, 0.0, 1.708991112628214E9, 0.0, 2024-02-26 18:45:12.628
142.0, 187500.0, 187500.0, 187500.0, -182432.07722092597, 187500.0, 14510.39487247406, -182104.1771297666, -182079.5678591213, 0.056, 0.016, 0.98, 192.0, 0.0, 0.0, 0.0, 0.0, 0.0, 0.0, 0.0, 0.0, 0.0, 1.708991112632234E9, 0.0, 2024-02-26 18:45:12.632
143.0, 187500.0, 187500.0, 187500.0, -182570.45687084878, 187500.0, 15442.507319749275, -182249.15054430373, -182226.44117193713, 0.056, 0.016, 0.98, 192.0, 0.0, 0.0, 0.0, 0.0, 0.0, 0.0, 0.0, 0.0, 0.0, 1.708991112636193E9, 0.0, 2024-02-26 18:45:12.636
144.0, 187500.0, 187500.0, 187500.0, -182475.1713842358, 187500.0, 14896.007167817017, -182168.68426426462, -182146.42192678715, 0.056, 0.016, 0.98, 192.0, 0.0, 0.0, 0.0, 0.0, 0.0, 0.0, 0.0, 0.0, 0.0, 1.708991112640209E9, 0.0, 2024-02-26 18:45:12.640
145.0, 187500.0, 187500.0, 187500.0, -182334.98124301212, 187500.0, 14170.46954279775, -182074.8739927857, -182056.88083849917, 0.056, 0.016, 0.98, 192.0, 0.0, 0.0, 0.0, 0.0, 0.0, 0.0, 0.0, 0.0, 0.0, 1.708991112645223E9, 0.0, 2024-02-26 18:45:12.645
146.0, 187500.0, 187500.0, 187500.0, -182352.4826589206, 187500.0, 14387.102650058587, -182095.86228082923, -182079.0761207433, 0.056, 0.016, 0.982, 192.0, 1.0, 192.0, 0.0, 128.0, 30.0, 176.0, 0.0, 0.0, 0.0, 1.70899111264922E9, 0.0, 2024-02-26 18:45:12.649
147.0, 187500.0, 187500.0, 187500.0, -182506.9332131068, 187500.0, 15373.954519504849, -182255.7666606625, -182240.0086808215, 0.056, 0.016, 0.982, 192.0, 0.0, 0.0, 0.0, 0.0, 0.0, 0.0, 0.0, 0.0, 0.0, 1.708991112653208E9, 0.0, 2024-02-26 18:45:12.653
148.0, 187500.0, 187500.0, 187500.0, -182465.44837539774, 187500.0, 15114.786042545564, -182220.71912535658, -182204.58116585985, 0.056, 0.016, 0.982, 192.0, 0.0, 0.0, 0.0, 0.0, 0.0, 0.0, 0.0, 0.0, 0.0, 1.708991112656257E9, 0.0, 2024-02-26 18:45:12.656
149.0, 187500.0, 187500.0, 187500.0, -182311.86953924532, 187500.0, 14226.661828358392, -182078.13734747618, -182060.70298680104, 0.056, 0.016, 0.982, 192.0, 0.0, 0.0, 0.0, 0.0, 0.0, 0.0, 0.0, 0.0, 0.0, 1.708991112660247E9, 0.0, 2024-02-26 18:45:12.660
150.0, 187500.0, 187500.0, 187500.0, -182304.0911321749, 187500.0, 14266.269119533197, -182085.3346091908, -182071.05184448385, 0.056, 0.016, 0.982, 192.0, 0.0, 0.0, 0.0, 0.0, 0.0, 0.0, 0.0, 0.0, 0.0, 1.708991112664245E9, 0.0, 2024-02-26 18:45:12.664
151.0, 187500.0, 187500.0, 187500.0, -182463.54847711904, 187500.0, 15197.353386563467, -182251.85510538283, -182237.0582505534, 0.056, 0.016, 0.982, 192.0, 0.0, 0.0, 0.0, 0.0, 0.0, 0.0, 0.0, 0.0, 0.0, 1.708991112668238E9, 0.0, 2024-02-26 18:45:12.668
152.0, 187500.0, 187500.0, 187500.0, -182462.565000363, 187500.0, 15214.161898393859, -182258.11359383032, -182242.4226692227, 0.056, 0.016, 0.982, 192.0, 0.0, 0.0, 0.0, 0.0, 0.0, 0.0, 0.0, 0.0, 0.0, 1.70899111267326E9, 0.0, 2024-02-26 18:45:12.673
153.0, 187500.0, 187500.0, 187500.0, -182277.6266667398, 187500.0, 14205.450022870305, -182104.7806268669, -182082.78651032288, 0.056, 0.016, 0.982, 192.0, 0.0, 0.0, 0.0, 0.0, 0.0, 0.0, 0.0, 0.0, 0.0, 1.70899111267726E9, 0.0, 2024-02-26 18:45:12.677
154.0, 187500.0, 187500.0, 187500.0, -182258.20300080813, 187500.0, 14093.199562215754, -182102.6348593992, -182081.3783504222, 0.056, 0.016, 0.982, 192.0, 0.0, 0.0, 0.0, 0.0, 0.0, 0.0, 0.0, 0.0, 0.0, 1.708991112681245E9, 0.0, 2024-02-26 18:45:12.681
155.0, 187500.0, 187500.0, 187500.0, -182384.28919128052, 187500.0, 14893.146144526738, -182231.8055906064, -182212.8066078194, 0.056, 0.016, 0.982, 192.0, 0.0, 0.0, 0.0, 0.0, 0.0, 0.0, 0.0, 0.0, 0.0, 1.708991112684247E9, 0.0, 2024-02-26 18:45:12.684
156.0, 187500.0, 187500.0, 187500.0, -182434.87118898288, 187500.0, 15264.989765285227, -182290.8141959684, -182271.18936433666, 0.056, 0.018000000000000002, 0.978, 192.0, 1.0, 192.0, 0.0, 144.0, 30.0, 144.0, 0.0, 0.0, 0.0, 1.708991112688247E9, 0.0, 2024-02-26 18:45:12.688
157.0, 187500.0, 187500.0, 187500.0, -182263.03097761047, 187500.0, 14260.34590725254, -182122.77378115343, -182101.15964426514, 0.056, 0.018000000000000002, 0.978, 192.0, 0.0, 0.0, 0.0, 0.0, 0.0, 0.0, 0.0, 0.0, 0.0, 1.70899111269225E9, 0.0, 2024-02-26 18:45:12.692
158.0, 187500.0, 187500.0, 187500.0, -182205.98932576054, 187500.0, 13961.659546096273, -182072.03532123988, -182048.968320962, 0.056, 0.018000000000000002, 0.978, 192.0, 0.0, 0.0, 0.0, 0.0, 0.0, 0.0, 0.0, 0.0, 0.0, 1.708991112696259E9, 0.0, 2024-02-26 18:45:12.696
159.0, 187500.0, 187500.0, 187500.0, -182299.7325420061, 187500.0, 14604.518068375359, -182174.6968835231, -182152.00986290097, 0.056, 0.018000000000000002, 0.978, 192.0, 0.0, 0.0, 0.0, 0.0, 0.0, 0.0, 0.0, 0.0, 0.0, 1.708991112700302E9, 0.0, 2024-02-26 18:45:12.700
160.0, 187500.0, 187500.0, 187500.0, -182406.01508689107, 187500.0, 15251.86929128996, -182289.9648296791, -182267.74719569055, 0.056, 0.018000000000000002, 0.978, 192.0, 0.0, 0.0, 0.0, 0.0, 0.0, 0.0, 0.0, 0.0, 0.0, 1.708991112705291E9, 0.0, 2024-02-26 18:45:12.705
161.0, 187500.0, 187500.0, 187500.0, -182249.32935825936, 187500.0, 14321.612038804536, -182141.45983951807, -182120.87388287473, 0.056, 0.018000000000000002, 0.978, 192.0, 0.0, 0.0, 0.0, 0.0, 0.0, 0.0, 0.0, 0.0, 0.0, 1.708991112709316E9, 0.0, 2024-02-26 18:45:12.709
162.0, 187500.0, 187500.0, 187500.0, -182151.8310489453, 187500.0, 13821.290590916944, -182070.40364389465, -182053.25985589743, 0.056, 0.018000000000000002, 0.978, 192.0, 0.0, 0.0, 0.0, 0.0, 0.0, 0.0, 0.0, 0.0, 0.0, 1.708991112712302E9, 0.0, 2024-02-26 18:45:12.712
163.0, 187500.0, 187500.0, 187500.0, -182218.7968753334, 187500.0, 14274.449858003838, -182143.27033081895, -182123.33257476482, 0.056, 0.018000000000000002, 0.978, 192.0, 0.0, 0.0, 0.0, 0.0, 0.0, 0.0, 0.0, 0.0, 0.0, 1.70899111271629E9, 0.0, 2024-02-26 18:45:12.716
164.0, 187500.0, 187500.0, 187500.0, -182357.91413282327, 187500.0, 15068.450876289711, -182291.46239655762, -182271.23406782557, 0.056, 0.018000000000000002, 0.978, 192.0, 0.0, 0.0, 0.0, 0.0, 0.0, 0.0, 0.0, 0.0, 0.0, 1.708991112720289E9, 0.0, 2024-02-26 18:45:12.720
165.0, 187500.0, 187500.0, 187500.0, -182244.18845703464, 187500.0, 14263.139875309453, -182182.8105667604, -182161.93403743912, 0.056, 0.018000000000000002, 0.978, 192.0, 0.0, 0.0, 0.0, 0.0, 0.0, 0.0, 0.0, 0.0, 0.0, 1.708991112724288E9, 0.0, 2024-02-26 18:45:12.724
166.0, 187500.0, 187500.0, 187500.0, -182130.2392638015, 187500.0, 13563.172645947057, -182073.89051602967, -182051.8740477412, 0.056, 0.016, 0.976, 192.0, 1.0, 192.0, 0.0, 128.0, 30.0, 128.0, 0.0, 0.0, 0.0, 1.708991112728286E9, 0.0, 2024-02-26 18:45:12.728
167.0, 187500.0, 187500.0, 187500.0, -182173.6016480448, 187500.0, 13834.388713167753, -182124.83014164332, -182102.70191463255, 0.056, 0.016, 0.976, 192.0, 0.0, 0.0, 0.0, 0.0, 0.0, 0.0, 0.0, 0.0, 0.0, 1.708991112733292E9, 0.0, 2024-02-26 18:45:12.733
168.0, 187500.0, 187500.0, 187500.0, -182321.4807893611, 187500.0, 14761.002631306963, -182282.5216987755, -182260.61698920932, 0.056, 0.016, 0.976, 192.0, 0.0, 0.0, 0.0, 0.0, 0.0, 0.0, 0.0, 0.0, 0.0, 1.708991112736295E9, 0.0, 2024-02-26 18:45:12.736
169.0, 187500.0, 187500.0, 187500.0, -182244.23316052355, 187500.0, 14270.672413190892, -182211.17493047417, -182187.92911624064, 0.056, 0.016, 0.976, 192.0, 0.0, 0.0, 0.0, 0.0, 0.0, 0.0, 0.0, 0.0, 0.0, 1.708991112740285E9, 0.0, 2024-02-26 18:45:12.740
170.0, 187500.0, 187500.0, 187500.0, -182104.80297861135, 187500.0, 13476.246711760368, -182076.34920791976, -182057.30552164384, 0.056, 0.016, 0.976, 192.0, 0.0, 0.0, 0.0, 0.0, 0.0, 0.0, 0.0, 0.0, 0.0, 1.708991112744335E9, 0.0, 2024-02-26 18:45:12.744
171.0, 187500.0, 187500.0, 187500.0, -182117.36465899524, 187500.0, 13644.532995764375, -182096.21990874052, -182079.70196958806, 0.056, 0.016, 0.976, 192.0, 0.0, 0.0, 0.0, 0.0, 0.0, 0.0, 0.0, 0.0, 0.0, 1.708991112748326E9, 0.0, 2024-02-26 18:45:12.748
172.0, 187500.0, 187500.0, 187500.0, -182263.70152994414, 187500.0, 14642.247813015916, -182252.1233263163, -182234.4654481966, 0.056, 0.016, 0.976, 192.0, 0.0, 0.0, 0.0, 0.0, 0.0, 0.0, 0.0, 0.0, 0.0, 1.708991112752316E9, 0.0, 2024-02-26 18:45:12.752
173.0, 187500.0, 187500.0, 187500.0, -182239.29342499893, 187500.0, 14525.59405870367, -182234.15252377422, -182215.7570380875, 0.056, 0.016, 0.976, 192.0, 0.0, 0.0, 0.0, 0.0, 0.0, 0.0, 0.0, 0.0, 0.0, 1.708991112756316E9, 0.0, 2024-02-26 18:45:12.756
174.0, 187500.0, 187500.0, 187500.0, -182066.44738512606, 187500.0, 13661.810894228327, -182099.79618785338, -182079.85843179925, 0.056, 0.016, 0.976, 192.0, 0.0, 0.0, 0.0, 0.0, 0.0, 0.0, 0.0, 0.0, 0.0, 1.70899111276135E9, 0.0, 2024-02-26 18:45:12.761
175.0, 187500.0, 187500.0, 187500.0, -181888.01340913933, 187500.0, 13697.640740590185, -182092.7777400944, -182072.41530089563, 0.056, 0.016, 0.976, 192.0, 0.0, 0.0, 0.0, 0.0, 0.0, 0.0, 0.0, 0.0, 0.0, 1.708991112764338E9, 0.0, 2024-02-26 18:45:12.764
176.0, 187500.0, 187500.0, 187500.0, -182194.92521225516, 187500.0, 14658.877510890665, -182199.82024429087, -182182.6988080381, 0.056, 0.016, 0.976, 192.0, 1.0, 192.0, 0.0, 128.0, 30.0, 128.0, 0.0, 0.0, 0.0, 1.708991112768327E9, 0.0, 2024-02-26 18:45:12.768
177.0, 187500.0, 187500.0, 187500.0, -182605.83968232153, 187500.0, 14852.197748684615, -182225.8153230924, -182206.41400890518, 0.056, 0.016, 0.976, 192.0, 0.0, 0.0, 0.0, 0.0, 0.0, 0.0, 0.0, 0.0, 0.0, 1.70899111277238E9, 0.0, 2024-02-26 18:45:12.772
178.0, 187500.0, 187500.0, 187500.0, -182507.06732357352, 187500.0, 13864.317698993409, -182113.96719383803, -182090.54256564888, 0.056, 0.016, 0.976, 192.0, 0.0, 0.0, 0.0, 0.0, 0.0, 0.0, 0.0, 0.0, 0.0, 1.708991112776366E9, 0.0, 2024-02-26 18:45:12.776
179.0, 187500.0, 187500.0, 187500.0, -182460.79921255104, 187500.0, 13682.933292738593, -182093.15771975013, -182074.56106836334, 0.056, 0.016, 0.976, 192.0, 0.0, 0.0, 0.0, 0.0, 0.0, 0.0, 0.0, 0.0, 0.0, 1.708991112780401E9, 0.0, 2024-02-26 18:45:12.780
180.0, 187500.0, 187500.0, 187500.0, -182581.7445017987, 187500.0, 14448.681706032958, -182210.57143337387, -182194.36641864377, 0.056, 0.016, 0.976, 192.0, 0.0, 0.0, 0.0, 0.0, 0.0, 0.0, 0.0, 0.0, 0.0, 1.708991112784384E9, 0.0, 2024-02-26 18:45:12.784
181.0, 187500.0, 187500.0, 187500.0, -182655.8628864125, 187500.0, 14913.106252325328, -182294.25636461456, -182276.8667074283, 0.056, 0.016, 0.976, 192.0, 0.0, 0.0, 0.0, 0.0, 0.0, 0.0, 0.0, 0.0, 0.0, 1.708991112789371E9, 0.0, 2024-02-26 18:45:12.789
182.0, 187500.0, 187500.0, 187500.0, -182490.8623088434, 187500.0, 13931.75291201507, -182134.35198478127, -182114.52598744942, 0.056, 0.016, 0.976, 192.0, 0.0, 0.0, 0.0, 0.0, 0.0, 0.0, 0.0, 0.0, 0.0, 1.708991112792396E9, 0.0, 2024-02-26 18:45:12.792
183.0, 187500.0, 187500.0, 187500.0, -182414.08406663945, 187500.0, 13603.584599922253, -182063.80987928034, -182042.48631506995, 0.056, 0.016, 0.976, 192.0, 0.0, 0.0, 0.0, 0.0, 0.0, 0.0, 0.0, 0.0, 0.0, 1.708991112796384E9, 0.0, 2024-02-26 18:45:12.796
184.0, 187500.0, 187500.0, 187500.0, -182494.28212574509, 187500.0, 14237.167148252387, -182153.01569140147, -182131.60272021327, 0.056, 0.016, 0.976, 192.0, 0.0, 0.0, 0.0, 0.0, 0.0, 0.0, 0.0, 0.0, 0.0, 1.708991112800381E9, 0.0, 2024-02-26 18:45:12.800
185.0, 187500.0, 187500.0, 187500.0, -182599.11180724046, 187500.0, 15003.697872602686, -182267.74719569055, -182244.83665762385, 0.056, 0.016, 0.976, 192.0, 0.0, 0.0, 0.0, 0.0, 0.0, 0.0, 0.0, 0.0, 0.0, 1.708991112804369E9, 0.0, 2024-02-26 18:45:12.804
186.0, 187500.0, 187500.0, 187500.0, -182456.19475319324, 187500.0, 14186.026356938644, -182143.7844209414, -182122.61731894224, 0.052000000000000005, 0.014, 0.974, 192.0, 1.0, 160.0, 0.0, 112.0, 30.0, 112.0, 0.0, 0.0, 0.0, 1.708991112808369E9, 0.0, 2024-02-26 18:45:12.808
187.0, 187500.0, 187500.0, 187500.0, -182347.6323303738, 187500.0, 13698.020720245924, -182080.46192889952, -182063.89928625815, 0.052000000000000005, 0.014, 0.974, 192.0, 0.0, 0.0, 0.0, 0.0, 0.0, 0.0, 0.0, 0.0, 0.0, 1.708991112812375E9, 0.0, 2024-02-26 18:45:12.812
188.0, 187500.0, 187500.0, 187500.0, -182402.12588335585, 187500.0, 14184.729955760236, -182133.32380453634, -182118.57165319583, 0.052000000000000005, 0.014, 0.974, 192.0, 0.0, 0.0, 0.0, 0.0, 0.0, 0.0, 0.0, 0.0, 0.0, 1.708991112817364E9, 0.0, 2024-02-26 18:45:12.817
189.0, 187500.0, 187500.0, 187500.0, -182532.72712620822, 187500.0, 15136.109606755927, -182272.55282074845, -182258.00183510804, 0.052000000000000005, 0.014, 0.974, 192.0, 0.0, 0.0, 0.0, 0.0, 0.0, 0.0, 0.0, 0.0, 0.0, 1.708991112820428E9, 0.0, 2024-02-26 18:45:12.820
190.0, 187500.0, 187500.0, 187500.0, -182407.04326713603, 187500.0, 14534.534756485791, -182184.41989236115, -182159.40829031568, 0.052000000000000005, 0.014, 0.974, 192.0, 0.0, 0.0, 0.0, 0.0, 0.0, 0.0, 0.0, 0.0, 0.0, 1.708991112824373E9, 0.0, 2024-02-26 18:45:12.824
191.0, 187500.0, 187500.0, 187500.0, -182267.56838173492, 187500.0, 13910.474051293619, -182112.15670253715, -182080.59603936627, 0.052000000000000005, 0.014, 0.974, 192.0, 0.0, 0.0, 0.0, 0.0, 0.0, 0.0, 0.0, 0.0, 0.0, 1.708991112828431E9, 0.0, 2024-02-26 18:45:12.828
192.0, 187500.0, 187500.0, 187500.0, -182309.4779025886, 187500.0, 14225.119557990976, -182139.15760983917, -182115.80003688336, 0.052000000000000005, 0.014, 0.974, 192.0, 0.0, 0.0, 0.0, 0.0, 0.0, 0.0, 0.0, 0.0, 0.0, 1.708991112832427E9, 0.0, 2024-02-26 18:45:12.832
193.0, 187500.0, 187500.0, 187500.0, -182459.90514277283, 187500.0, 15213.848973971484, -182297.81029198293, -182274.60918123834, 0.052000000000000005, 0.014, 0.974, 192.0, 0.0, 0.0, 0.0, 0.0, 0.0, 0.0, 0.0, 0.0, 0.0, 1.708991112836417E9, 0.0, 2024-02-26 18:45:12.836
194.0, 187500.0, 187500.0, 187500.0, -182400.15892984378, 187500.0, 14847.325068393358, -182244.3672709903, -182219.64624162272, 0.052000000000000005, 0.014, 0.974, 192.0, 0.0, 0.0, 0.0, 0.0, 0.0, 0.0, 0.0, 0.0, 0.0, 1.708991112840421E9, 0.0, 2024-02-26 18:45:12.840
195.0, 187500.0, 187500.0, 187500.0, -182240.74628838853, 187500.0, 14014.230849055153, -182089.4249784261, -182062.93816124657, 0.054, 0.016, 0.978, 192.0, 1.0, 176.0, 0.0, 128.0, 30.0, 144.0, 0.0, 0.0, 0.0, 1.708991112845423E9, 0.0, 2024-02-26 18:45:12.845
196.0, 187500.0, 187500.0, 187500.0, -182248.39058499224, 187500.0, 14141.971068617233, -182103.3948187107, -182076.88564978668, 0.054, 0.016, 0.978, 192.0, 0.0, 0.0, 0.0, 0.0, 0.0, 0.0, 0.0, 0.0, 0.0, 1.70899111284844E9, 0.0, 2024-02-26 18:45:12.848
197.0, 187500.0, 187500.0, 187500.0, -182388.26780179355, 187500.0, 15114.316655912002, -182254.04557633944, -182227.44700043762, 0.054, 0.016, 0.978, 192.0, 0.0, 0.0, 0.0, 0.0, 0.0, 0.0, 0.0, 0.0, 0.0, 1.708991112851435E9, 0.0, 2024-02-26 18:45:12.851
198.0, 187500.0, 187500.0, 187500.0, -182358.11529852336, 187500.0, 15058.191425584726, -182233.75019237402, -182206.41400890518, 0.054, 0.016, 0.978, 192.0, 0.0, 0.0, 0.0, 0.0, 0.0, 0.0, 0.0, 0.0, 0.0, 1.708991112856414E9, 0.0, 2024-02-26 18:45:12.856
199.0, 187500.0, 187500.0, 187500.0, -182182.94467722712, 187500.0, 14125.520184698127, -182101.2266994985, -182078.6290858542, 0.054, 0.016, 0.978, 192.0, 0.0, 0.0, 0.0, 0.0, 0.0, 0.0, 0.0, 0.0, 0.0, 1.708991112860466E9, 0.0, 2024-02-26 18:45:12.860
200.0, 187500.0, 187500.0, 187500.0, -182146.4889820205, 187500.0, 14084.281216178086, -182092.46481567202, -182068.45904212704, 0.054, 0.016, 0.978, 192.0, 0.0, 0.0, 0.0, 0.0, 0.0, 0.0, 0.0, 0.0, 0.0, 1.708991112864419E9, 0.0, 2024-02-26 18:45:12.864
201.0, 187500.0, 187500.0, 187500.0, -182277.8725359288, 187500.0, 14980.764982791541, -182220.74147710105, -182199.90965126868, 0.054, 0.016, 0.978, 192.0, 0.0, 0.0, 0.0, 0.0, 0.0, 0.0, 0.0, 0.0, 0.0, 1.708991112868409E9, 0.0, 2024-02-26 18:45:12.868
202.0, 187500.0, 187500.0, 187500.0, -182325.07942021842, 187500.0, 15286.514495195688, -182276.26321032803, -182254.00087285053, 0.054, 0.016, 0.978, 192.0, 0.0, 0.0, 0.0, 0.0, 0.0, 0.0, 0.0, 0.0, 0.0, 1.70899111287246E9, 0.0, 2024-02-26 18:45:12.872
203.0, 187500.0, 187500.0, 187500.0, -182164.86211596278, 187500.0, 14332.117358698531, -182120.04686832987, -182098.9244698196, 0.054, 0.016, 0.978, 192.0, 0.0, 0.0, 0.0, 0.0, 0.0, 0.0, 0.0, 0.0, 0.0, 1.708991112875456E9, 0.0, 2024-02-26 18:45:12.875
204.0, 187500.0, 187500.0, 187500.0, -182105.40647571164, 187500.0, 14131.376341745417, -182067.25204792645, -182051.0693849408, 0.054, 0.016, 0.978, 192.0, 0.0, 0.0, 0.0, 0.0, 0.0, 0.0, 0.0, 0.0, 0.0, 1.70899111287946E9, 0.0, 2024-02-26 18:45:12.879
205.0, 187500.0, 187500.0, 187500.0, -182201.56368035838, 187500.0, 14879.46687692009, -182172.66287477768, -182155.07205189136, 0.056, 0.01, 0.982, 192.0, 1.0, 192.0, 0.0, 80.0, 30.0, 176.0, 0.0, 0.0, 0.0, 1.708991112884469E9, 0.0, 2024-02-26 18:45:12.884
206.0, 187500.0, 187500.0, 187500.0, -182297.81029198293, 187500.0, 15470.022317173758, -182277.15728010624, -182259.67821594217, 0.056, 0.01, 0.982, 192.0, 0.0, 0.0, 0.0, 0.0, 0.0, 0.0, 0.0, 0.0, 0.0, 1.708991112888476E9, 0.0, 2024-02-26 18:45:12.888
207.0, 187500.0, 187500.0, 187500.0, -182137.95061563858, 187500.0, 14521.168413301519, -182129.81458065685, -182112.71549614854, 0.056, 0.01, 0.982, 192.0, 0.0, 0.0, 0.0, 0.0, 0.0, 0.0, 0.0, 0.0, 0.0, 1.708991112892471E9, 0.0, 2024-02-26 18:45:12.892
208.0, 187500.0, 187500.0, 187500.0, -182052.76811751942, 187500.0, 14124.9837428312, -182069.59898109426, -182048.29776862834, 0.056, 0.01, 0.982, 192.0, 0.0, 0.0, 0.0, 0.0, 0.0, 0.0, 0.0, 0.0, 0.0, 1.708991112896477E9, 0.0, 2024-02-26 18:45:12.896
209.0, 187500.0, 187500.0, 187500.0, -182133.61437721425, 187500.0, 14684.492610036446, -182152.72511872355, -182132.38503126922, 0.056, 0.01, 0.982, 192.0, 0.0, 0.0, 0.0, 0.0, 0.0, 0.0, 0.0, 0.0, 0.0, 1.708991112903114E9, 0.0, 2024-02-26 18:45:12.903
210.0, 187500.0, 187500.0, 187500.0, -182253.26326528352, 187500.0, 15476.370212599066, -182282.25347784205, -182261.37694852077, 0.056, 0.01, 0.982, 192.0, 0.0, 0.0, 0.0, 0.0, 0.0, 0.0, 0.0, 0.0, 0.0, 1.708991112903446E9, 0.0, 2024-02-26 18:45:12.903
211.0, 187500.0, 187500.0, 187500.0, -182035.08788765525, 187500.0, 14661.04563010283, -182163.63277001772, -182138.79998192788, 0.056, 0.01, 0.982, 192.0, 0.0, 0.0, 0.0, 0.0, 0.0, 0.0, 0.0, 0.0, 0.0, 1.708991112907475E9, 0.0, 2024-02-26 18:45:12.907
212.0, 187500.0, 187500.0, 187500.0, -181855.62573142358, 187500.0, 14106.141222255377, -182074.53871661887, -182052.5222483304, 0.056, 0.01, 0.982, 192.0, 0.0, 0.0, 0.0, 0.0, 0.0, 0.0, 0.0, 0.0, 0.0, 1.708991112912511E9, 0.0, 2024-02-26 18:45:12.912
213.0, 187500.0, 187500.0, 187500.0, -182200.82607279136, 187500.0, 14507.690311394968, -182100.9361268206, -182081.73597833348, 0.056, 0.01, 0.982, 192.0, 0.0, 0.0, 0.0, 0.0, 0.0, 0.0, 0.0, 0.0, 0.0, 1.708991112916506E9, 0.0, 2024-02-26 18:45:12.916
214.0, 187500.0, 187500.0, 187500.0, -182735.70331760685, 187500.0, 15437.254659802278, -182240.522770944, -182220.6073666343, 0.056, 0.01, 0.982, 192.0, 0.0, 0.0, 0.0, 0.0, 0.0, 0.0, 0.0, 0.0, 0.0, 1.708991112920506E9, 0.0, 2024-02-26 18:45:12.920
215.0, 187500.0, 187500.0, 187500.0, -182704.83555851408, 187500.0, 14847.012143970984, -182170.6512177767, -182141.92922615164, 0.058, 0.014, 0.984, 192.0, 1.0, 208.0, 0.0, 112.0, 30.0, 192.0, 0.0, 0.0, 0.0, 1.708991112924498E9, 0.0, 2024-02-26 18:45:12.924
216.0, 187500.0, 187500.0, 187500.0, -182547.90396069337, 187500.0, 14113.092614780977, -182103.2830599884, -182073.84581254076, 0.058, 0.014, 0.984, 192.0, 0.0, 0.0, 0.0, 0.0, 0.0, 0.0, 0.0, 0.0, 0.0, 1.708991112927502E9, 0.0, 2024-02-26 18:45:12.927
217.0, 187500.0, 187500.0, 187500.0, -182563.84075449, 187500.0, 14365.242643981295, -182107.239318757, -182089.4249784261, 0.058, 0.014, 0.984, 192.0, 0.0, 0.0, 0.0, 0.0, 0.0, 0.0, 0.0, 0.0, 0.0, 1.708991112931521E9, 0.0, 2024-02-26 18:45:12.931
218.0, 187500.0, 187500.0, 187500.0, -182720.90646277744, 187500.0, 15371.875807270504, -182269.2224108246, -182251.02809083796, 0.058, 0.014, 0.984, 192.0, 0.0, 0.0, 0.0, 0.0, 0.0, 0.0, 0.0, 0.0, 0.0, 1.708991112935504E9, 0.0, 2024-02-26 18:45:12.935
219.0, 187500.0, 187500.0, 187500.0, -182646.13987757443, 187500.0, 15082.93480669675, -182202.86008153678, -182184.06226444987, 0.058, 0.014, 0.984, 192.0, 0.0, 0.0, 0.0, 0.0, 0.0, 0.0, 0.0, 0.0, 0.0, 1.708991112940506E9, 0.0, 2024-02-26 18:45:12.940
220.0, 187500.0, 187500.0, 187500.0, -182485.25202098515, 187500.0, 14220.58215386655, -182090.6319726267, -182066.11210895923, 0.058, 0.014, 0.984, 192.0, 0.0, 0.0, 0.0, 0.0, 0.0, 0.0, 0.0, 0.0, 0.0, 1.708991112944501E9, 0.0, 2024-02-26 18:45:12.944
221.0, 187500.0, 187500.0, 187500.0, -182457.35704390492, 187500.0, 14267.073782333588, -182087.8827080587, -182062.55818159084, 0.058, 0.014, 0.984, 192.0, 0.0, 0.0, 0.0, 0.0, 0.0, 0.0, 0.0, 0.0, 0.0, 1.708991112948496E9, 0.0, 2024-02-26 18:45:12.948
222.0, 187500.0, 187500.0, 187500.0, -182596.56370837256, 187500.0, 15213.24547687119, -182224.98830854756, -182202.5024536255, 0.058, 0.014, 0.984, 192.0, 0.0, 0.0, 0.0, 0.0, 0.0, 0.0, 0.0, 0.0, 0.0, 1.7089911129525E9, 0.0, 2024-02-26 18:45:12.952
223.0, 187500.0, 187500.0, 187500.0, -182611.11469401297, 187500.0, 15260.742933838717, -182246.35657624682, -182222.9542998021, 0.058, 0.014, 0.984, 192.0, 0.0, 0.0, 0.0, 0.0, 0.0, 0.0, 0.0, 0.0, 0.0, 1.708991112956545E9, 0.0, 2024-02-26 18:45:12.956
224.0, 187500.0, 187500.0, 187500.0, -182453.40078513633, 187500.0, 14267.945500367345, -182093.6271063837, -182072.08002472878, 0.058, 0.014, 0.984, 192.0, 0.0, 0.0, 0.0, 0.0, 0.0, 0.0, 0.0, 0.0, 0.0, 1.708991112959542E9, 0.0, 2024-02-26 18:45:12.959
225.0, 187500.0, 187500.0, 187500.0, -182424.812903978, 187500.0, 14115.640713648882, -182072.30354217335, -182055.91971348762, 0.056, 0.014, 0.978, 192.0, 1.0, 192.0, 0.0, 112.0, 30.0, 144.0, 0.0, 0.0, 0.0, 1.708991112963559E9, 0.0, 2024-02-26 18:45:12.963
226.0, 187500.0, 187500.0, 187500.0, -182548.37334732694, 187500.0, 14901.416289975203, -182204.4023519042, -182186.29743889542, 0.056, 0.014, 0.978, 192.0, 0.0, 0.0, 0.0, 0.0, 0.0, 0.0, 0.0, 0.0, 0.0, 1.708991112967543E9, 0.0, 2024-02-26 18:45:12.967
227.0, 187500.0, 187500.0, 187500.0, -182610.42178993486, 187500.0, 15252.182215712335, -182274.45271902715, -182256.05723334043, 0.056, 0.014, 0.978, 192.0, 0.0, 0.0, 0.0, 0.0, 0.0, 0.0, 0.0, 0.0, 0.0, 1.708991112972539E9, 0.0, 2024-02-26 18:45:12.972
228.0, 187500.0, 187500.0, 187500.0, -182437.57575006198, 187500.0, 14271.454724246827, -182129.54635972338, -182105.1382547782, 0.056, 0.014, 0.978, 192.0, 0.0, 0.0, 0.0, 0.0, 0.0, 0.0, 0.0, 0.0, 0.0, 1.70899111297655E9, 0.0, 2024-02-26 18:45:12.976
229.0, 187500.0, 187500.0, 187500.0, -182361.0880805359, 187500.0, 14029.765311451592, -182076.95270502006, -182050.04120469585, 0.056, 0.014, 0.978, 192.0, 0.0, 0.0, 0.0, 0.0, 0.0, 0.0, 0.0, 0.0, 0.0, 1.708991112980545E9, 0.0, 2024-02-26 18:45:12.980
230.0, 187500.0, 187500.0, 187500.0, -182437.4639913397, 187500.0, 14740.30491594135, -182152.68041523462, -182127.93703412262, 0.056, 0.014, 0.978, 192.0, 0.0, 0.0, 0.0, 0.0, 0.0, 0.0, 0.0, 0.0, 0.0, 1.708991112984539E9, 0.0, 2024-02-26 18:45:12.984
231.0, 187500.0, 187500.0, 187500.0, -182500.9652973372, 187500.0, 15425.519993963242, -182229.6151196498, -182204.24588969303, 0.056, 0.014, 0.978, 192.0, 0.0, 0.0, 0.0, 0.0, 0.0, 0.0, 0.0, 0.0, 0.0, 1.708991112987541E9, 0.0, 2024-02-26 18:45:12.987
232.0, 187500.0, 187500.0, 187500.0, -182314.2835276465, 187500.0, 14567.436524324004, -182147.5842174988, -182097.06927502982, 0.056, 0.014, 0.978, 192.0, 0.0, 0.0, 0.0, 0.0, 0.0, 0.0, 0.0, 0.0, 0.0, 1.708991112991543E9, 0.0, 2024-02-26 18:45:12.991
233.0, 187500.0, 187500.0, 187500.0, -182190.81249127537, 187500.0, 14164.032240394621, -182099.86324308673, -182058.66897805562, 0.056, 0.014, 0.978, 192.0, 0.0, 0.0, 0.0, 0.0, 0.0, 0.0, 0.0, 0.0, 0.0, 1.708991112996585E9, 0.0, 2024-02-26 18:45:12.996
234.0, 187500.0, 187500.0, 187500.0, -182237.28176799798, 187500.0, 14695.377909586181, -182120.02451658543, -182091.30252496037, 0.056, 0.014, 0.978, 192.0, 0.0, 0.0, 0.0, 0.0, 0.0, 0.0, 0.0, 0.0, 0.0, 1.70899111300058E9, 0.0, 2024-02-26 18:45:13.000
235.0, 187500.0, 187500.0, 187500.0, -182354.27079847705, 187500.0, 15544.990068076859, -182244.25551226802, -182213.99125027555, 0.058, 0.018000000000000002, 0.984, 192.0, 1.0, 208.0, 0.0, 144.0, 30.0, 192.0, 0.0, 0.0, 0.0, 1.708991113004601E9, 0.0, 2024-02-26 18:45:13.004
236.0, 187500.0, 187500.0, 187500.0, -182218.12632299977, 187500.0, 14781.16390480565, -182150.7805169559, -182117.02938282842, 0.058, 0.018000000000000002, 0.984, 192.0, 0.0, 0.0, 0.0, 0.0, 0.0, 0.0, 0.0, 0.0, 0.0, 1.708991113007597E9, 0.0, 2024-02-26 18:45:13.007
237.0, 187500.0, 187500.0, 187500.0, -182084.64170511268, 187500.0, 14125.36372248694, -182071.00714099495, -182049.52711457337, 0.058, 0.018000000000000002, 0.984, 192.0, 0.0, 0.0, 0.0, 0.0, 0.0, 0.0, 0.0, 0.0, 0.0, 1.708991113011619E9, 0.0, 2024-02-26 18:45:13.011
238.0, 187500.0, 187500.0, 187500.0, -182117.07408631733, 187500.0, 14425.547650521714, -182100.4443884426, -182085.40166442416, 0.058, 0.018000000000000002, 0.984, 192.0, 0.0, 0.0, 0.0, 0.0, 0.0, 0.0, 0.0, 0.0, 0.0, 1.708991113015608E9, 0.0, 2024-02-26 18:45:13.015
239.0, 187500.0, 187500.0, 187500.0, -182258.11359383032, 187500.0, 15358.330650130589, -182248.03295708096, -182232.4090877067, 0.058, 0.018000000000000002, 0.984, 192.0, 0.0, 0.0, 0.0, 0.0, 0.0, 0.0, 0.0, 0.0, 0.0, 1.708991113019608E9, 0.0, 2024-02-26 18:45:13.019
240.0, 187500.0, 187500.0, 187500.0, -182175.52389806794, 187500.0, 14865.161760468694, -182177.3120376244, -182159.0953658933, 0.058, 0.018000000000000002, 0.984, 192.0, 0.0, 0.0, 0.0, 0.0, 0.0, 0.0, 0.0, 0.0, 0.0, 1.708991113023602E9, 0.0, 2024-02-26 18:45:13.023
241.0, 187500.0, 187500.0, 187500.0, -181928.15714218107, 187500.0, 14096.328806439496, -182077.44444339807, -182052.65635879713, 0.058, 0.018000000000000002, 0.984, 192.0, 0.0, 0.0, 0.0, 0.0, 0.0, 0.0, 0.0, 0.0, 0.0, 1.708991113028645E9, 0.0, 2024-02-26 18:45:13.028
242.0, 187500.0, 187500.0, 187500.0, -181925.69845029098, 187500.0, 14294.20880010233, -182080.50663238845, -182062.31231240183, 0.058, 0.018000000000000002, 0.984, 192.0, 0.0, 0.0, 0.0, 0.0, 0.0, 0.0, 0.0, 0.0, 0.0, 1.708991113032628E9, 0.0, 2024-02-26 18:45:13.032
243.0, 187500.0, 187500.0, 187500.0, -182475.41725342482, 187500.0, 15294.270550521678, -182227.49170392653, -182211.1078752408, 0.058, 0.018000000000000002, 0.984, 192.0, 0.0, 0.0, 0.0, 0.0, 0.0, 0.0, 0.0, 0.0, 0.0, 1.708991113035603E9, 0.0, 2024-02-26 18:45:13.035
244.0, 187500.0, 187500.0, 187500.0, -182685.85892747153, 187500.0, 15088.947425955228, -182214.41593342018, -182196.1545582002, 0.058, 0.018000000000000002, 0.984, 192.0, 0.0, 0.0, 0.0, 0.0, 0.0, 0.0, 0.0, 0.0, 0.0, 1.708991113039597E9, 0.0, 2024-02-26 18:45:13.039
245.0, 187500.0, 187500.0, 187500.0, -182515.7398004222, 187500.0, 14129.856423122457, -182069.30840841634, -182045.88378022716, 0.056, 0.018000000000000002, 0.98, 192.0, 1.0, 192.0, 0.0, 144.0, 30.0, 160.0, 0.0, 0.0, 0.0, 1.708991113043651E9, 0.0, 2024-02-26 18:45:13.043
246.0, 187500.0, 187500.0, 187500.0, -182493.8127391115, 187500.0, 14105.761242599636, -182062.04409146836, -182038.91003595712, 0.056, 0.018000000000000002, 0.98, 192.0, 0.0, 0.0, 0.0, 0.0, 0.0, 0.0, 0.0, 0.0, 0.0, 1.708991113047637E9, 0.0, 2024-02-26 18:45:13.047
247.0, 187500.0, 187500.0, 187500.0, -182629.33136574406, 187500.0, 15005.530715648023, -182201.72014256957, -182180.88831673723, 0.056, 0.018000000000000002, 0.98, 192.0, 0.0, 0.0, 0.0, 0.0, 0.0, 0.0, 0.0, 0.0, 0.0, 1.70899111305164E9, 0.0, 2024-02-26 18:45:13.051
248.0, 187500.0, 187500.0, 187500.0, -182648.37505201998, 187500.0, 15168.206711793748, -182231.00092780602, -182208.78329381745, 0.056, 0.018000000000000002, 0.98, 192.0, 0.0, 0.0, 0.0, 0.0, 0.0, 0.0, 0.0, 0.0, 0.0, 1.708991113056622E9, 0.0, 2024-02-26 18:45:13.056
249.0, 187500.0, 187500.0, 187500.0, -182471.81862256752, 187500.0, 14211.440290384327, -182086.74276909148, -182064.92746650308, 0.056, 0.018000000000000002, 0.98, 192.0, 0.0, 0.0, 0.0, 0.0, 0.0, 0.0, 0.0, 0.0, 0.0, 1.708991113060633E9, 0.0, 2024-02-26 18:45:13.060
250.0, 187500.0, 187500.0, 187500.0, -182421.81777022098, 187500.0, 14080.839047531968, -182051.89639948565, -182034.2161696215, 0.056, 0.018000000000000002, 0.98, 192.0, 0.0, 0.0, 0.0, 0.0, 0.0, 0.0, 0.0, 0.0, 0.0, 1.708991113063681E9, 0.0, 2024-02-26 18:45:13.063
251.0, 187500.0, 187500.0, 187500.0, -182535.85637043195, 187500.0, 14890.128659025271, -182167.5443252974, -182150.82522044485, 0.056, 0.018000000000000002, 0.98, 192.0, 0.0, 0.0, 0.0, 0.0, 0.0, 0.0, 0.0, 0.0, 0.0, 1.708991113067646E9, 0.0, 2024-02-26 18:45:13.067
252.0, 187500.0, 187500.0, 187500.0, -182601.16816773036, 187500.0, 15370.154722947447, -182243.0708698119, -182225.83767483686, 0.056, 0.018000000000000002, 0.98, 192.0, 0.0, 0.0, 0.0, 0.0, 0.0, 0.0, 0.0, 0.0, 0.0, 1.70899111307164E9, 0.0, 2024-02-26 18:45:13.071
253.0, 187500.0, 187500.0, 187500.0, -182420.6554795093, 187500.0, 14401.13954557652, -182102.5454524214, -182080.48428064398, 0.056, 0.018000000000000002, 0.98, 192.0, 0.0, 0.0, 0.0, 0.0, 0.0, 0.0, 0.0, 0.0, 0.0, 1.708991113075644E9, 0.0, 2024-02-26 18:45:13.075
254.0, 187500.0, 187500.0, 187500.0, -182345.17363848374, 187500.0, 14082.604835343938, -182047.82838199477, -182029.5223032859, 0.056, 0.018000000000000002, 0.98, 192.0, 0.0, 0.0, 0.0, 0.0, 0.0, 0.0, 0.0, 0.0, 0.0, 1.708991113079664E9, 0.0, 2024-02-26 18:45:13.079
255.0, 187500.0, 187500.0, 187500.0, -182439.7215175297, 187500.0, 14707.62666554769, -182140.65517671767, -182124.15958930965, 0.058, 0.018000000000000002, 0.98, 192.0, 1.0, 208.0, 0.0, 144.0, 30.0, 160.0, 0.0, 0.0, 0.0, 1.708991113084667E9, 0.0, 2024-02-26 18:45:13.084
0.0, 187500.0, 187500.0, 187500.0, -182546.94283568178, 187500.0, 15408.95735132186, -182257.10776532983, -182239.62870116578, 0.058, 0.018000000000000002, 0.98, 192.0, 0.0, 0.0, 0.0, 0.0, 0.0, 0.0, 0.0, 0.0, 0.0, 1.708991113088666E9, 0.0, 2024-02-26 18:45:13.088
1.0, 187500.0, 187500.0, 187500.0, -182395.12978734134, 187500.0, 14539.45214026596, -182115.91179560564, -182095.5717081513, 0.058, 0.018000000000000002, 0.98, 192.0, 0.0, 0.0, 0.0, 0.0, 0.0, 0.0, 0.0, 0.0, 0.0, 1.708991113091692E9, 0.0, 2024-02-26 18:45:13.091
2.0, 187500.0, 187500.0, 187500.0, -182297.94440244968, 187500.0, 14055.000430941634, -182046.39787034964, -182024.9178439281, 0.058, 0.018000000000000002, 0.98, 192.0, 0.0, 0.0, 0.0, 0.0, 0.0, 0.0, 0.0, 0.0, 0.0, 1.708991113095686E9, 0.0, 2024-02-26 18:45:13.095
3.0, 187500.0, 187500.0, 187500.0, -182350.20278098618, 187500.0, 14515.44636672096, -182101.27140298742, -182081.8700888002, 0.058, 0.018000000000000002, 0.98, 192.0, 0.0, 0.0, 0.0, 0.0, 0.0, 0.0, 0.0, 0.0, 0.0, 1.708991113099682E9, 0.0, 2024-02-26 18:45:13.099
4.0, 187500.0, 187500.0, 187500.0, -182494.9750298232, 187500.0, 15430.258563787767, -182254.60436995083, -182235.1583522747, 0.058, 0.018000000000000002, 0.98, 192.0, 0.0, 0.0, 0.0, 0.0, 0.0, 0.0, 0.0, 0.0, 0.0, 1.708991113103692E9, 0.0, 2024-02-26 18:45:13.103
5.0, 187500.0, 187500.0, 187500.0, -182392.69344719572, 187500.0, 14770.658584911656, -182157.97777867052, -182136.63186271573, 0.058, 0.018000000000000002, 0.98, 192.0, 0.0, 0.0, 0.0, 0.0, 0.0, 0.0, 0.0, 0.0, 0.0, 1.708991113107682E9, 0.0, 2024-02-26 18:45:13.107
6.0, 187500.0, 187500.0, 187500.0, -182276.53143126148, 187500.0, 14096.50762039514, -182047.85073373924, -182024.22493984998, 0.058, 0.018000000000000002, 0.98, 192.0, 0.0, 0.0, 0.0, 0.0, 0.0, 0.0, 0.0, 0.0, 0.0, 1.70899111311275E9, 0.0, 2024-02-26 18:45:13.112
7.0, 187500.0, 187500.0, 187500.0, -182315.1328939358, 187500.0, 14358.514768900248, -182093.9400308061, -182069.71073981654, 0.058, 0.018000000000000002, 0.98, 192.0, 0.0, 0.0, 0.0, 0.0, 0.0, 0.0, 0.0, 0.0, 0.0, 1.708991113116755E9, 0.0, 2024-02-26 18:45:13.116
8.0, 187500.0, 187500.0, 187500.0, -182456.7758985491, 187500.0, 15298.115050567993, -182245.3283960019, -182221.63554687926, 0.058, 0.018000000000000002, 0.98, 192.0, 0.0, 0.0, 0.0, 0.0, 0.0, 0.0, 0.0, 0.0, 0.0, 1.708991113119681E9, 0.0, 2024-02-26 18:45:13.119
9.0, 187500.0, 187500.0, 187500.0, -182387.1502145708, 187500.0, 14877.768144341488, -182190.6560290642, -182166.33733109682, 0.058, 0.016, 0.976, 192.0, 1.0, 208.0, 0.0, 128.0, 30.0, 128.0, 0.0, 0.0, 0.0, 1.708991113123688E9, 0.0, 2024-02-26 18:45:13.123
10.0, 187500.0, 187500.0, 187500.0, -182226.9552620596, 187500.0, 14033.430997542262, -182088.35209469227, -182058.13253618867, 0.058, 0.016, 0.976, 192.0, 0.0, 0.0, 0.0, 0.0, 0.0, 0.0, 0.0, 0.0, 0.0, 1.708991113127712E9, 0.0, 2024-02-26 18:45:13.127
11.0, 187500.0, 187500.0, 187500.0, -182234.2642824965, 187500.0, 14159.651298481382, -182099.483263431, -182069.39781539416, 0.058, 0.016, 0.976, 192.0, 0.0, 0.0, 0.0, 0.0, 0.0, 0.0, 0.0, 0.0, 0.0, 1.708991113131732E9, 0.0, 2024-02-26 18:45:13.131
12.0, 187500.0, 187500.0, 187500.0, -182376.9578190992, 187500.0, 15146.793740605563, -182247.83179138086, -182219.6015381338, 0.058, 0.016, 0.976, 192.0, 0.0, 0.0, 0.0, 0.0, 0.0, 0.0, 0.0, 0.0, 0.0, 1.708991113135735E9, 0.0, 2024-02-26 18:45:13.135
13.0, 187500.0, 187500.0, 187500.0, -182351.92386530925, 187500.0, 15077.503332794111, -182231.44796269512, -182203.57533735936, 0.058, 0.016, 0.976, 192.0, 0.0, 0.0, 0.0, 0.0, 0.0, 0.0, 0.0, 0.0, 0.0, 1.708991113139729E9, 0.0, 2024-02-26 18:45:13.139
14.0, 187500.0, 187500.0, 187500.0, -182163.72217699554, 187500.0, 14141.434626750306, -182094.25295522847, -182066.49208861496, 0.058, 0.016, 0.976, 192.0, 0.0, 0.0, 0.0, 0.0, 0.0, 0.0, 0.0, 0.0, 0.0, 1.708991113144754E9, 0.0, 2024-02-26 18:45:13.144
15.0, 187500.0, 187500.0, 187500.0, -182125.81361839935, 187500.0, 14118.32292298352, -182074.7175305745, -182051.82934425227, 0.058, 0.016, 0.976, 192.0, 0.0, 0.0, 0.0, 0.0, 0.0, 0.0, 0.0, 0.0, 0.0, 1.708991113147732E9, 0.0, 2024-02-26 18:45:13.147
16.0, 187500.0, 187500.0, 187500.0, -182262.65099795474, 187500.0, 15014.091433774405, -182211.06317175188, -182188.91259299667, 0.058, 0.016, 0.976, 192.0, 0.0, 0.0, 0.0, 0.0, 0.0, 0.0, 0.0, 0.0, 0.0, 1.708991113151734E9, 0.0, 2024-02-26 18:45:13.151
17.0, 187500.0, 187500.0, 187500.0, -182291.8200244689, 187500.0, 15261.949928039305, -182254.7161286731, -182229.48100918307, 0.058, 0.016, 0.976, 192.0, 0.0, 0.0, 0.0, 0.0, 0.0, 0.0, 0.0, 0.0, 0.0, 1.708991113155738E9, 0.0, 2024-02-26 18:45:13.155
18.0, 187500.0, 187500.0, 187500.0, -182018.0111548914, 187500.0, 14254.400343227428, -182129.88163589023, -182088.24033596998, 0.062, 0.016, 0.974, 192.0, 1.0, 240.0, 0.0, 128.0, 30.0, 112.0, 0.0, 0.0, 0.0, 1.708991113159759E9, 0.0, 2024-02-26 18:45:13.159
19.0, 187500.0, 187500.0, 187500.0, -181838.54899865974, 187500.0, 14063.02470720109, -182064.01104498043, -182044.49797207094, 0.062, 0.016, 0.974, 192.0, 0.0, 0.0, 0.0, 0.0, 0.0, 0.0, 0.0, 0.0, 0.0, 1.708991113163757E9, 0.0, 2024-02-26 18:45:13.163
20.0, 187500.0, 187500.0, 187500.0, -182251.7209949161, 187500.0, 14822.6487425147, -182142.13039185174, -182124.96425211005, 0.062, 0.016, 0.974, 192.0, 0.0, 0.0, 0.0, 0.0, 0.0, 0.0, 0.0, 0.0, 0.0, 1.708991113168744E9, 0.0, 2024-02-26 18:45:13.168
21.0, 187500.0, 187500.0, 187500.0, -182678.66166575692, 187500.0, 15353.65913553943, -182224.4071631917, -182206.07873273836, 0.062, 0.016, 0.974, 192.0, 0.0, 0.0, 0.0, 0.0, 0.0, 0.0, 0.0, 0.0, 0.0, 1.708991113171756E9, 0.0, 2024-02-26 18:45:13.171
22.0, 187500.0, 187500.0, 187500.0, -182543.36655656894, 187500.0, 14393.897580372999, -182094.2753069729, -182070.38129215018, 0.062, 0.016, 0.974, 192.0, 0.0, 0.0, 0.0, 0.0, 0.0, 0.0, 0.0, 0.0, 0.0, 1.708991113174732E9, 0.0, 2024-02-26 18:45:13.174
23.0, 187500.0, 187500.0, 187500.0, -182476.82541332548, 187500.0, 14033.96743940919, -182036.49604755593, -182020.9615851595, 0.062, 0.016, 0.974, 192.0, 0.0, 0.0, 0.0, 0.0, 0.0, 0.0, 0.0, 0.0, 0.0, 1.708991113179788E9, 0.0, 2024-02-26 18:45:13.179
24.0, 187500.0, 187500.0, 187500.0, -182551.56964678405, 187500.0, 14588.17894317853, -182113.1401792932, -182096.8904610742, 0.062, 0.016, 0.974, 192.0, 0.0, 0.0, 0.0, 0.0, 0.0, 0.0, 0.0, 0.0, 0.0, 1.708991113183791E9, 0.0, 2024-02-26 18:45:13.183
25.0, 187500.0, 187500.0, 187500.0, -182669.7656714637, 187500.0, 15367.316051401622, -182241.1262680443, -182224.58597714736, 0.062, 0.016, 0.974, 192.0, 0.0, 0.0, 0.0, 0.0, 0.0, 0.0, 0.0, 0.0, 0.0, 1.708991113187783E9, 0.0, 2024-02-26 18:45:13.187
26.0, 187500.0, 187500.0, 187500.0, -182536.2363500877, 187500.0, 14560.172207376028, -182125.29952827687, -182106.16643502313, 0.062, 0.016, 0.974, 192.0, 0.0, 0.0, 0.0, 0.0, 0.0, 0.0, 0.0, 0.0, 0.0, 1.708991113191791E9, 0.0, 2024-02-26 18:45:13.191
27.0, 187500.0, 187500.0, 187500.0, -182424.7458487446, 187500.0, 14013.001503110112, -182058.93719898906, -182039.84880922423, 0.062, 0.016, 0.974, 192.0, 0.0, 0.0, 0.0, 0.0, 0.0, 0.0, 0.0, 0.0, 0.0, 1.708991113196801E9, 0.0, 2024-02-26 18:45:13.196
28.0, 187500.0, 187500.0, 187500.0, -182474.74670109115, 187500.0, 14416.22697308385, -182106.25584200094, -182090.76608309342, 0.058, 0.014, 0.976, 192.0, 1.0, 208.0, 0.0, 112.0, 30.0, 128.0, 0.0, 0.0, 0.0, 1.708991113199798E9, 0.0, 2024-02-26 18:45:13.199
29.0, 187500.0, 187500.0, 187500.0, -182615.4509324373, 187500.0, 15349.121731415002, -182256.88424788526, -182240.8133436219, 0.058, 0.014, 0.976, 192.0, 0.0, 0.0, 0.0, 0.0, 0.0, 0.0, 0.0, 0.0, 0.0, 1.708991113202766E9, 0.0, 2024-02-26 18:45:13.202
30.0, 187500.0, 187500.0, 187500.0, -182514.86808238842, 187500.0, 14761.7849423629, -182163.83393571782, -182146.06429887586, 0.058, 0.014, 0.976, 192.0, 0.0, 0.0, 0.0, 0.0, 0.0, 0.0, 0.0, 0.0, 0.0, 1.708991113207772E9, 0.0, 2024-02-26 18:45:13.207
31.0, 187500.0, 187500.0, 187500.0, -182370.40875797378, 187500.0, 14038.035456900056, -182060.23360016747, -182040.8769894692, 0.058, 0.014, 0.976, 192.0, 0.0, 0.0, 0.0, 0.0, 0.0, 0.0, 0.0, 0.0, 0.0, 1.708991113211764E9, 0.0, 2024-02-26 18:45:13.211
32.0, 187500.0, 187500.0, 187500.0, -182387.46313899316, 187500.0, 14277.467343505305, -182095.8399290848, -182077.1315189757, 0.058, 0.014, 0.976, 192.0, 0.0, 0.0, 0.0, 0.0, 0.0, 0.0, 0.0, 0.0, 0.0, 1.708991113215819E9, 0.0, 2024-02-26 18:45:13.215
33.0, 187500.0, 187500.0, 187500.0, -182545.89230369238, 187500.0, 15257.099599492503, -182255.54314321795, -182239.04755580993, 0.058, 0.014, 0.976, 192.0, 0.0, 0.0, 0.0, 0.0, 0.0, 0.0, 0.0, 0.0, 0.0, 1.708991113219806E9, 0.0, 2024-02-26 18:45:13.219
34.0, 187500.0, 187500.0, 187500.0, -182495.1761955233, 187500.0, 14941.247098594558, -182210.8620060518, -182193.07001746536, 0.058, 0.014, 0.976, 192.0, 0.0, 0.0, 0.0, 0.0, 0.0, 0.0, 0.0, 0.0, 0.0, 1.708991113224812E9, 0.0, 2024-02-26 18:45:13.224
35.0, 187500.0, 187500.0, 187500.0, -182338.17754246923, 187500.0, 14059.716649021704, -182058.28899839986, -182042.978053448, 0.058, 0.014, 0.976, 192.0, 0.0, 0.0, 0.0, 0.0, 0.0, 0.0, 0.0, 0.0, 0.0, 1.708991113227837E9, 0.0, 2024-02-26 18:45:13.227
36.0, 187500.0, 187500.0, 187500.0, -182332.74606856657, 187500.0, 14119.015827061634, -182060.47946935648, -182048.85656223973, 0.058, 0.014, 0.976, 192.0, 0.0, 0.0, 0.0, 0.0, 0.0, 0.0, 0.0, 0.0, 0.0, 1.708991113230811E9, 0.0, 2024-02-26 18:45:13.230
37.0, 187500.0, 187500.0, 187500.0, -182486.07903552998, 187500.0, 15066.59568149992, -182224.83184633637, -182210.88435779625, 0.058, 0.014, 0.976, 192.0, 0.0, 0.0, 0.0, 0.0, 0.0, 0.0, 0.0, 0.0, 0.0, 1.708991113235828E9, 0.0, 2024-02-26 18:45:13.235
38.0, 187500.0, 187500.0, 187500.0, -182486.39195995237, 187500.0, 15080.520818295578, -182235.85125635282, -182220.67442186768, 0.064, 0.014, 0.974, 192.0, 2.0, 0.0, 0.0, 112.0, 30.0, 112.0, 0.0, 0.0, 0.0, 1.708991113239816E9, 0.0, 2024-02-26 18:45:13.239
39.0, 187500.0, 187500.0, 187500.0, -182296.40213208226, 187500.0, 14105.98476004419, -182081.6689231001, -182060.94885599005, 0.064, 0.014, 0.974, 192.0, 0.0, 0.0, 0.0, 0.0, 0.0, 0.0, 0.0, 0.0, 0.0, 1.708991113243834E9, 0.0, 2024-02-26 18:45:13.243
40.0, 187500.0, 187500.0, 187500.0, -182253.97852110607, 187500.0, 14011.705101931704, -182044.5650273043, -182027.68946024054, 0.064, 0.014, 0.974, 192.0, 0.0, 0.0, 0.0, 0.0, 0.0, 0.0, 0.0, 0.0, 0.0, 1.70899111324782E9, 0.0, 2024-02-26 18:45:13.247
41.0, 187500.0, 187500.0, 187500.0, -182368.1959352727, 187500.0, 14850.856644017298, -182163.2974938509, -182147.0924791208, 0.064, 0.014, 0.974, 192.0, 0.0, 0.0, 0.0, 0.0, 0.0, 0.0, 0.0, 0.0, 0.0, 1.708991113252854E9, 0.0, 2024-02-26 18:45:13.252
42.0, 187500.0, 187500.0, 187500.0, -182433.7536017601, 187500.0, 15233.362046880968, -182236.2088842641, -182220.98734629006, 0.064, 0.014, 0.974, 192.0, 0.0, 0.0, 0.0, 0.0, 0.0, 0.0, 0.0, 0.0, 0.0, 1.708991113255857E9, 0.0, 2024-02-26 18:45:13.255
43.0, 187500.0, 187500.0, 187500.0, -182263.47801249957, 187500.0, 14264.190407298853, -182094.1858999951, -182073.51053637394, 0.064, 0.014, 0.974, 192.0, 0.0, 0.0, 0.0, 0.0, 0.0, 0.0, 0.0, 0.0, 0.0, 1.708991113258855E9, 0.0, 2024-02-26 18:45:13.258
44.0, 187500.0, 187500.0, 187500.0, -182192.46652036507, 187500.0, 14014.789642666537, -182058.66897805562, -182040.9216929581, 0.064, 0.014, 0.974, 192.0, 0.0, 0.0, 0.0, 0.0, 0.0, 0.0, 0.0, 0.0, 0.0, 1.708991113263875E9, 0.0, 2024-02-26 18:45:13.263
45.0, 187500.0, 187500.0, 187500.0, -182281.3147045749, 187500.0, 14715.181555173584, -182144.96906339756, -182130.32867077933, 0.064, 0.014, 0.974, 192.0, 0.0, 0.0, 0.0, 0.0, 0.0, 0.0, 0.0, 0.0, 0.0, 1.708991113267882E9, 0.0, 2024-02-26 18:45:13.267
46.0, 187500.0, 187500.0, 187500.0, -182373.96268534218, 187500.0, 15378.067240484625, -182245.14958204623, -182231.5597214174, 0.064, 0.014, 0.974, 192.0, 0.0, 0.0, 0.0, 0.0, 0.0, 0.0, 0.0, 0.0, 0.0, 1.708991113271866E9, 0.0, 2024-02-26 18:45:13.271
47.0, 187500.0, 187500.0, 187500.0, -182219.1097997558, 187500.0, 14493.273436221294, -182102.0760657878, -182086.29573420237, 0.064, 0.014, 0.974, 192.0, 0.0, 0.0, 0.0, 0.0, 0.0, 0.0, 0.0, 0.0, 0.0, 1.708991113275853E9, 0.0, 2024-02-26 18:45:13.275
48.0, 187500.0, 187500.0, 187500.0, -182132.94382488058, 187500.0, 14079.430887631284, -182042.4192598366, -182024.64962299462, 0.064, 0.016, 0.976, 192.0, 2.0, 0.0, 0.0, 128.0, 30.0, 128.0, 0.0, 0.0, 0.0, 1.708991113279856E9, 0.0, 2024-02-26 18:45:13.279
49.0, 187500.0, 187500.0, 187500.0, -182200.82607279136, 187500.0, 14595.130335704129, -182111.21792927003, -182094.8788040732, 0.064, 0.016, 0.976, 192.0, 0.0, 0.0, 0.0, 0.0, 0.0, 0.0, 0.0, 0.0, 0.0, 1.708991113283843E9, 0.0, 2024-02-26 18:45:13.283
50.0, 187500.0, 187500.0, 187500.0, -182328.92392026473, 187500.0, 15420.580258438618, -182249.06113732592, -182231.78323886197, 0.064, 0.016, 0.976, 192.0, 0.0, 0.0, 0.0, 0.0, 0.0, 0.0, 0.0, 0.0, 0.0, 1.708991113286843E9, 0.0, 2024-02-26 18:45:13.286
51.0, 187500.0, 187500.0, 187500.0, -182204.31294492638, 187500.0, 14649.199205541518, -182140.05167961738, -182118.8398741293, 0.064, 0.016, 0.976, 192.0, 0.0, 0.0, 0.0, 0.0, 0.0, 0.0, 0.0, 0.0, 0.0, 1.708991113290887E9, 0.0, 2024-02-26 18:45:13.290
52.0, 187500.0, 187500.0, 187500.0, -182089.40262668167, 187500.0, 14028.133634106354, -182072.59411485126, -182042.75453600343, 0.064, 0.016, 0.976, 192.0, 0.0, 0.0, 0.0, 0.0, 0.0, 0.0, 0.0, 0.0, 0.0, 1.708991113295887E9, 0.0, 2024-02-26 18:45:13.295
53.0, 187500.0, 187500.0, 187500.0, -182134.37433652574, 187500.0, 14367.433114937916, -182113.72132464903, -182089.4249784261, 0.064, 0.016, 0.976, 192.0, 0.0, 0.0, 0.0, 0.0, 0.0, 0.0, 0.0, 0.0, 0.0, 1.708991113299889E9, 0.0, 2024-02-26 18:45:13.299
54.0, 187500.0, 187500.0, 187500.0, -182273.55864924894, 187500.0, 15313.26953330869, -182260.28171304247, -182237.19236102013, 0.064, 0.016, 0.976, 192.0, 0.0, 0.0, 0.0, 0.0, 0.0, 0.0, 0.0, 0.0, 0.0, 1.708991113303907E9, 0.0, 2024-02-26 18:45:13.303
55.0, 187500.0, 187500.0, 187500.0, -182195.3051919109, 187500.0, 14826.917925705664, -182187.81735751836, -182162.67164500614, 0.064, 0.016, 0.976, 192.0, 0.0, 0.0, 0.0, 0.0, 0.0, 0.0, 0.0, 0.0, 0.0, 1.708991113306897E9, 0.0, 2024-02-26 18:45:13.306
56.0, 187500.0, 187500.0, 187500.0, -182065.95564674804, 187500.0, 14083.700070822248, -182063.22873392448, -182036.3619370892, 0.064, 0.016, 0.976, 192.0, 0.0, 0.0, 0.0, 0.0, 0.0, 0.0, 0.0, 0.0, 0.0, 1.708991113310902E9, 0.0, 2024-02-26 18:45:13.310
57.0, 187500.0, 187500.0, 187500.0, -182077.35503642025, 187500.0, 14276.707384193825, -182082.58534462278, -182054.31038788683, 0.064, 0.016, 0.976, 192.0, 0.0, 0.0, 0.0, 0.0, 0.0, 0.0, 0.0, 0.0, 0.0, 1.708991113314891E9, 0.0, 2024-02-26 18:45:13.314
58.0, 187500.0, 187500.0, 187500.0, -182215.57822413187, 187500.0, 15266.487332163731, -182230.3527272168, -182203.24006119254, 0.056, 0.014, 0.974, 192.0, 1.0, 192.0, 0.0, 112.0, 30.0, 112.0, 0.0, 0.0, 0.0, 1.708991113318911E9, 0.0, 2024-02-26 18:45:13.318
59.0, 187500.0, 187500.0, 187500.0, -182169.28776136492, 187500.0, 15105.666530807797, -182207.82216880587, -182181.04477894842, 0.056, 0.014, 0.974, 192.0, 0.0, 0.0, 0.0, 0.0, 0.0, 0.0, 0.0, 0.0, 0.0, 1.708991113323905E9, 0.0, 2024-02-26 18:45:13.323
60.0, 187500.0, 187500.0, 187500.0, -181867.44980424046, 187500.0, 14239.469377931284, -182104.46770244453, -182070.76127180594, 0.056, 0.014, 0.974, 192.0, 0.0, 0.0, 0.0, 0.0, 0.0, 0.0, 0.0, 0.0, 0.0, 1.708991113327907E9, 0.0, 2024-02-26 18:45:13.327
61.0, 187500.0, 187500.0, 187500.0, -181935.10853470667, 187500.0, 14305.719948496813, -182071.20830669504, -182040.80993423582, 0.056, 0.014, 0.974, 192.0, 0.0, 0.0, 0.0, 0.0, 0.0, 0.0, 0.0, 0.0, 0.0, 1.708991113331905E9, 0.0, 2024-02-26 18:45:13.331
62.0, 187500.0, 187500.0, 187500.0, -182487.6660093863, 187500.0, 15249.142378466413, -182198.0544564789, -182170.78532824342, 0.056, 0.014, 0.974, 192.0, 0.0, 0.0, 0.0, 0.0, 0.0, 0.0, 0.0, 0.0, 0.0, 1.708991113334908E9, 0.0, 2024-02-26 18:45:13.334
63.0, 187500.0, 187500.0, 187500.0, -182748.15323926846, 187500.0, 15382.939920775882, -182235.65009065272, -182207.19631996113, 0.056, 0.014, 0.974, 192.0, 0.0, 0.0, 0.0, 0.0, 0.0, 0.0, 0.0, 0.0, 0.0, 1.708991113339001E9, 0.0, 2024-02-26 18:45:13.339
64.0, 187500.0, 187500.0, 187500.0, -182595.2449554497, 187500.0, 14399.239647297818, -182080.9313155331, -182055.60678906523, 0.056, 0.014, 0.974, 192.0, 0.0, 0.0, 0.0, 0.0, 0.0, 0.0, 0.0, 0.0, 0.0, 1.708991113342999E9, 0.0, 2024-02-26 18:45:13.342
65.0, 187500.0, 187500.0, 187500.0, -182562.07496667802, 187500.0, 14254.802674627625, -182054.80212626484, -182033.67972775458, 0.056, 0.014, 0.974, 192.0, 0.0, 0.0, 0.0, 0.0, 0.0, 0.0, 0.0, 0.0, 0.0, 1.708991113347021E9, 0.0, 2024-02-26 18:45:13.347
66.0, 187500.0, 187500.0, 187500.0, -182684.7189885043, 187500.0, 15054.570442982966, -182186.56565982886, -182164.57154328484, 0.056, 0.014, 0.974, 192.0, 0.0, 0.0, 0.0, 0.0, 0.0, 0.0, 0.0, 0.0, 0.0, 1.70899111335201E9, 0.0, 2024-02-26 18:45:13.352
67.0, 187500.0, 187500.0, 187500.0, -182759.0832423071, 187500.0, 15508.35555891461, -182269.69179745816, -182247.5188669585, 0.056, 0.014, 0.974, 192.0, 0.0, 0.0, 0.0, 0.0, 0.0, 0.0, 0.0, 0.0, 0.0, 1.708991113356018E9, 0.0, 2024-02-26 18:45:13.356
68.0, 187500.0, 187500.0, 187500.0, -182589.76877805815, 187500.0, 14538.602773976658, -182106.94874607906, -182084.70876034605, 0.058, 0.016, 0.978, 192.0, 1.0, 208.0, 0.0, 128.0, 30.0, 144.0, 0.0, 0.0, 0.0, 1.708991113360022E9, 0.0, 2024-02-26 18:45:13.360
69.0, 187500.0, 187500.0, 187500.0, -182513.2364050432, 187500.0, 14207.662845571382, -182048.5212860729, -182027.2647770959, 0.058, 0.016, 0.978, 192.0, 0.0, 0.0, 0.0, 0.0, 0.0, 0.0, 0.0, 0.0, 0.0, 1.708991113363023E9, 0.0, 2024-02-26 18:45:13.363
70.0, 187500.0, 187500.0, 187500.0, -182589.6570193359, 187500.0, 14828.84017572882, -182134.17317082564, -182110.74854263646, 0.058, 0.016, 0.978, 192.0, 0.0, 0.0, 0.0, 0.0, 0.0, 0.0, 0.0, 0.0, 0.0, 1.708991113367014E9, 0.0, 2024-02-26 18:45:13.367
71.0, 187500.0, 187500.0, 187500.0, -182690.93277346288, 187500.0, 15516.558649129707, -182245.19428553514, -182221.03204977897, 0.058, 0.016, 0.978, 192.0, 0.0, 0.0, 0.0, 0.0, 0.0, 0.0, 0.0, 0.0, 0.0, 1.708991113371019E9, 0.0, 2024-02-26 18:45:13.371
72.0, 187500.0, 187500.0, 187500.0, -182534.76113495365, 187500.0, 14641.152577537607, -182130.0380981014, -182102.61250765473, 0.058, 0.016, 0.978, 192.0, 0.0, 0.0, 0.0, 0.0, 0.0, 0.0, 0.0, 0.0, 0.0, 1.708991113375013E9, 0.0, 2024-02-26 18:45:13.375
73.0, 187500.0, 187500.0, 187500.0, -182434.87118898288, 187500.0, 14179.879627213435, -182061.41824262362, -182041.79341099184, 0.058, 0.016, 0.978, 192.0, 0.0, 0.0, 0.0, 0.0, 0.0, 0.0, 0.0, 0.0, 0.0, 1.708991113380026E9, 0.0, 2024-02-26 18:45:13.380
74.0, 187500.0, 187500.0, 187500.0, -182494.7738641231, 187500.0, 14658.586938212746, -182114.6824496606, -182096.51048141843, 0.058, 0.016, 0.978, 192.0, 0.0, 0.0, 0.0, 0.0, 0.0, 0.0, 0.0, 0.0, 0.0, 1.708991113384003E9, 0.0, 2024-02-26 18:45:13.384
75.0, 187500.0, 187500.0, 187500.0, -182623.4081534634, 187500.0, 15546.465283210908, -182253.15150656123, -182235.024241808, 0.058, 0.016, 0.978, 192.0, 0.0, 0.0, 0.0, 0.0, 0.0, 0.0, 0.0, 0.0, 0.0, 1.708991113388004E9, 0.0, 2024-02-26 18:45:13.388
76.0, 187500.0, 187500.0, 187500.0, -182506.3297160065, 187500.0, 14871.554359382912, -182148.41123204367, -182129.41224925665, 0.058, 0.016, 0.978, 192.0, 0.0, 0.0, 0.0, 0.0, 0.0, 0.0, 0.0, 0.0, 0.0, 1.708991113391009E9, 0.0, 2024-02-26 18:45:13.391
77.0, 187500.0, 187500.0, 187500.0, -182380.42233948974, 187500.0, 14214.81540379708, -182058.80308852234, -182040.6311202802, 0.058, 0.016, 0.978, 192.0, 0.0, 0.0, 0.0, 0.0, 0.0, 0.0, 0.0, 0.0, 0.0, 1.708991113395022E9, 0.0, 2024-02-26 18:45:13.395
78.0, 187500.0, 187500.0, 187500.0, -182411.91594742727, 187500.0, 14517.748596399857, -182094.32001046182, -182078.56203062084, 0.056, 0.018000000000000002, 0.98, 192.0, 1.0, 192.0, 0.0, 144.0, 30.0, 160.0, 0.0, 0.0, 0.0, 1.708991113399009E9, 0.0, 2024-02-26 18:45:13.399
79.0, 187500.0, 187500.0, 187500.0, -182570.0321877041, 187500.0, 15495.145677941524, -182259.92408513118, -182244.2778640125, 0.056, 0.018000000000000002, 0.98, 192.0, 0.0, 0.0, 0.0, 0.0, 0.0, 0.0, 0.0, 0.0, 0.0, 1.70899111340302E9, 0.0, 2024-02-26 18:45:13.403
80.0, 187500.0, 187500.0, 187500.0, -182497.38901822438, 187500.0, 15060.448951774712, -182194.23230817704, -182177.73672076903, 0.056, 0.018000000000000002, 0.98, 192.0, 0.0, 0.0, 0.0, 0.0, 0.0, 0.0, 0.0, 0.0, 0.0, 1.708991113408016E9, 0.0, 2024-02-26 18:45:13.408
81.0, 187500.0, 187500.0, 187500.0, -182335.62944360133, 187500.0, 14226.684180102848, -182048.45423083953, -182037.3677655897, 0.056, 0.018000000000000002, 0.98, 192.0, 0.0, 0.0, 0.0, 0.0, 0.0, 0.0, 0.0, 0.0, 0.0, 1.70899111341201E9, 0.0, 2024-02-26 18:45:13.412
82.0, 187500.0, 187500.0, 187500.0, -182339.69746109218, 187500.0, 14327.624658063014, -182059.02660596688, -182053.39396636415, 0.056, 0.018000000000000002, 0.98, 192.0, 0.0, 0.0, 0.0, 0.0, 0.0, 0.0, 0.0, 0.0, 0.0, 1.708991113414997E9, 0.0, 2024-02-26 18:45:13.414
83.0, 187500.0, 187500.0, 187500.0, -182474.50083190214, 187500.0, 15250.662297089375, -182201.83190129185, -182194.12054945476, 0.056, 0.018000000000000002, 0.98, 192.0, 0.0, 0.0, 0.0, 0.0, 0.0, 0.0, 0.0, 0.0, 0.0, 1.708991113418996E9, 0.0, 2024-02-26 18:45:13.418
84.0, 187500.0, 187500.0, 187500.0, -182447.63403506685, 187500.0, 15133.315638699012, -182184.48694759453, -182175.07686317884, 0.056, 0.018000000000000002, 0.98, 192.0, 0.0, 0.0, 0.0, 0.0, 0.0, 0.0, 0.0, 0.0, 0.0, 1.708991113424001E9, 0.0, 2024-02-26 18:45:13.424
85.0, 187500.0, 187500.0, 187500.0, -182287.2826203445, 187500.0, 14213.094319474021, -182093.96238255053, -182063.34049264676, 0.056, 0.018000000000000002, 0.98, 192.0, 0.0, 0.0, 0.0, 0.0, 0.0, 0.0, 0.0, 0.0, 0.0, 1.708991113428029E9, 0.0, 2024-02-26 18:45:13.428
86.0, 187500.0, 187500.0, 187500.0, -182250.2681315265, 187500.0, 14175.766906233659, -182079.8807835437, -182052.47754484147, 0.056, 0.018000000000000002, 0.98, 192.0, 0.0, 0.0, 0.0, 0.0, 0.0, 0.0, 0.0, 0.0, 0.0, 1.708991113431034E9, 0.0, 2024-02-26 18:45:13.431
87.0, 187500.0, 187500.0, 187500.0, -182371.66045566328, 187500.0, 15035.325591006947, -182194.12054945476, -182171.79115674392, 0.056, 0.018000000000000002, 0.98, 192.0, 0.0, 0.0, 0.0, 0.0, 0.0, 0.0, 0.0, 0.0, 0.0, 1.708991113435032E9, 0.0, 2024-02-26 18:45:13.435
88.0, 187500.0, 187500.0, 187500.0, -182395.82269141945, 187500.0, 15265.861483318984, -182229.39160220523, -182205.81051180488, 0.056, 0.018000000000000002, 0.984, 192.0, 1.0, 192.0, 0.0, 144.0, 30.0, 192.0, 0.0, 0.0, 0.0, 1.708991113439029E9, 0.0, 2024-02-26 18:45:13.439
89.0, 187500.0, 187500.0, 187500.0, -182209.006811262, 187500.0, 14286.698613965347, -182095.45994942903, -182071.3200654173, 0.056, 0.018000000000000002, 0.984, 192.0, 0.0, 0.0, 0.0, 0.0, 0.0, 0.0, 0.0, 0.0, 0.0, 1.708991113443031E9, 0.0, 2024-02-26 18:45:13.443
90.0, 187500.0, 187500.0, 187500.0, -182147.24894133199, 187500.0, 14103.347254198463, -182050.75646051843, -182032.00334692042, 0.056, 0.018000000000000002, 0.984, 192.0, 0.0, 0.0, 0.0, 0.0, 0.0, 0.0, 0.0, 0.0, 0.0, 1.708991113447026E9, 0.0, 2024-02-26 18:45:13.447
91.0, 187500.0, 187500.0, 187500.0, -182249.2175995371, 187500.0, 14854.209405685593, -182151.27225533396, -182133.45791500306, 0.056, 0.018000000000000002, 0.984, 192.0, 0.0, 0.0, 0.0, 0.0, 0.0, 0.0, 0.0, 0.0, 0.0, 1.708991113452019E9, 0.0, 2024-02-26 18:45:13.452
92.0, 187500.0, 187500.0, 187500.0, -182315.2446526581, 187500.0, 15382.157609719947, -182226.6199858928, -182208.0009827615, 0.056, 0.018000000000000002, 0.984, 192.0, 0.0, 0.0, 0.0, 0.0, 0.0, 0.0, 0.0, 0.0, 0.0, 1.708991113456064E9, 0.0, 2024-02-26 18:45:13.456
93.0, 187500.0, 187500.0, 187500.0, -182162.22461011703, 187500.0, 14446.468883331881, -182096.80105409637, -182078.85260329876, 0.056, 0.018000000000000002, 0.984, 192.0, 0.0, 0.0, 0.0, 0.0, 0.0, 0.0, 0.0, 0.0, 0.0, 1.708991113459066E9, 0.0, 2024-02-26 18:45:13.459
94.0, 187500.0, 187500.0, 187500.0, -182081.8253853113, 187500.0, 14071.563073583016, -182044.0285854374, -182028.00238466292, 0.056, 0.018000000000000002, 0.984, 192.0, 0.0, 0.0, 0.0, 0.0, 0.0, 0.0, 0.0, 0.0, 0.0, 1.708991113463094E9, 0.0, 2024-02-26 18:45:13.463
95.0, 187500.0, 187500.0, 187500.0, -182141.70570870707, 187500.0, 14628.345027964715, -182103.10424603274, -182088.19563248107, 0.056, 0.018000000000000002, 0.984, 192.0, 0.0, 0.0, 0.0, 0.0, 0.0, 0.0, 0.0, 0.0, 0.0, 1.708991113467084E9, 0.0, 2024-02-26 18:45:13.467
96.0, 187500.0, 187500.0, 187500.0, -182260.84050665385, 187500.0, 15393.467592414332, -182231.24679699502, -182216.74051484355, 0.056, 0.018000000000000002, 0.984, 192.0, 0.0, 0.0, 0.0, 0.0, 0.0, 0.0, 0.0, 0.0, 0.0, 1.708991113471077E9, 0.0, 2024-02-26 18:45:13.471
97.0, 187500.0, 187500.0, 187500.0, -182124.60662419876, 187500.0, 14566.743620245888, -182122.8408363868, -182102.478397188, 0.056, 0.018000000000000002, 0.984, 192.0, 0.0, 0.0, 0.0, 0.0, 0.0, 0.0, 0.0, 0.0, 0.0, 1.708991113475081E9, 0.0, 2024-02-26 18:45:13.475
98.0, 187500.0, 187500.0, 187500.0, -182015.6195182347, 187500.0, 14023.328009048464, -182049.46005934002, -182033.25504460992, 0.056, 0.014, 0.978, 192.0, 1.0, 192.0, 0.0, 112.0, 30.0, 144.0, 0.0, 0.0, 0.0, 1.708991113480087E9, 0.0, 2024-02-26 18:45:13.480
99.0, 187500.0, 187500.0, 187500.0, -182067.72143456, 187500.0, 14433.773092481268, -182097.0245715409, -182083.50176614546, 0.056, 0.014, 0.978, 192.0, 0.0, 0.0, 0.0, 0.0, 0.0, 0.0, 0.0, 0.0, 0.0, 1.708991113484073E9, 0.0, 2024-02-26 18:45:13.484
100.0, 187500.0, 187500.0, 187500.0, -182205.2070147046, 187500.0, 15348.138254658968, -182244.30021575693, -182229.95039581662, 0.056, 0.014, 0.978, 192.0, 0.0, 0.0, 0.0, 0.0, 0.0, 0.0, 0.0, 0.0, 0.0, 1.708991113487077E9, 0.0, 2024-02-26 18:45:13.487
101.0, 187500.0, 187500.0, 187500.0, -182070.80597529485, 187500.0, 14750.229090479505, -182156.234342603, -182140.92339765115, 0.056, 0.014, 0.978, 192.0, 0.0, 0.0, 0.0, 0.0, 0.0, 0.0, 0.0, 0.0, 0.0, 1.708991113491078E9, 0.0, 2024-02-26 18:45:13.491
102.0, 187500.0, 187500.0, 187500.0, -181817.7618763163, 187500.0, 14046.26089885961, -182077.80207130936, -182047.64956803914, 0.056, 0.014, 0.978, 192.0, 0.0, 0.0, 0.0, 0.0, 0.0, 0.0, 0.0, 0.0, 0.0, 1.7089911134951E9, 0.0, 2024-02-26 18:45:13.495
103.0, 187500.0, 187500.0, 187500.0, -182027.89062594064, 187500.0, 14290.87839017849, -182115.0847810608, -182084.86522255722, 0.056, 0.014, 0.978, 192.0, 0.0, 0.0, 0.0, 0.0, 0.0, 0.0, 0.0, 0.0, 0.0, 1.708991113499135E9, 0.0, 2024-02-26 18:45:13.499
104.0, 187500.0, 187500.0, 187500.0, -182611.40526669088, 187500.0, 15283.988748072237, -182250.9163321157, -182230.1068580278, 0.056, 0.014, 0.978, 192.0, 0.0, 0.0, 0.0, 0.0, 0.0, 0.0, 0.0, 0.0, 0.0, 1.708991113503093E9, 0.0, 2024-02-26 18:45:13.503
105.0, 187500.0, 187500.0, 187500.0, -182698.04062819967, 187500.0, 14952.870005711318, -182201.83190129185, -182180.1507091702, 0.056, 0.014, 0.978, 192.0, 0.0, 0.0, 0.0, 0.0, 0.0, 0.0, 0.0, 0.0, 0.0, 1.708991113508083E9, 0.0, 2024-02-26 18:45:13.508
106.0, 187500.0, 187500.0, 187500.0, -182548.4851060492, 187500.0, 14094.585370371982, -182056.61261756573, -182033.4115068211, 0.056, 0.014, 0.978, 192.0, 0.0, 0.0, 0.0, 0.0, 0.0, 0.0, 0.0, 0.0, 0.0, 1.708991113511126E9, 0.0, 2024-02-26 18:45:13.511
107.0, 187500.0, 187500.0, 187500.0, -182541.13138212342, 187500.0, 14167.876740440935, -182057.23846641046, -182032.4280300651, 0.052000000000000005, 0.022, 0.978, 192.0, 1.0, 160.0, 0.0, 176.0, 30.0, 144.0, 0.0, 0.0, 0.0, 1.708991113515146E9, 0.0, 2024-02-26 18:45:13.515
108.0, 187500.0, 187500.0, 187500.0, -182685.32248560459, 187500.0, 15119.591667603454, -182211.89018629675, -182187.63854356273, 0.052000000000000005, 0.022, 0.978, 192.0, 0.0, 0.0, 0.0, 0.0, 0.0, 0.0, 0.0, 0.0, 0.0, 1.708991113519141E9, 0.0, 2024-02-26 18:45:13.519
109.0, 187500.0, 187500.0, 187500.0, -182697.7277037773, 187500.0, 15141.317563214012, -182232.90082608472, -182207.9562792726, 0.052000000000000005, 0.022, 0.978, 192.0, 0.0, 0.0, 0.0, 0.0, 0.0, 0.0, 0.0, 0.0, 0.0, 1.708991113523151E9, 0.0, 2024-02-26 18:45:13.523
110.0, 187500.0, 187500.0, 187500.0, -182528.07796336152, 187500.0, 14200.867915256968, -182079.85843179925, -182058.31135014433, 0.052000000000000005, 0.022, 0.978, 192.0, 0.0, 0.0, 0.0, 0.0, 0.0, 0.0, 0.0, 0.0, 0.0, 1.708991113527128E9, 0.0, 2024-02-26 18:45:13.527
111.0, 187500.0, 187500.0, 187500.0, -182491.6222681549, 187500.0, 14128.358856243953, -182064.972169992, -182047.73897501695, 0.052000000000000005, 0.022, 0.978, 192.0, 0.0, 0.0, 0.0, 0.0, 0.0, 0.0, 0.0, 0.0, 0.0, 1.708991113531127E9, 0.0, 2024-02-26 18:45:13.531
112.0, 187500.0, 187500.0, 187500.0, -182615.60739464848, 187500.0, 14986.01764273854, -182191.1030639533, -182173.93692421162, 0.052000000000000005, 0.022, 0.978, 192.0, 0.0, 0.0, 0.0, 0.0, 0.0, 0.0, 0.0, 0.0, 0.0, 1.708991113536147E9, 0.0, 2024-02-26 18:45:13.536
113.0, 187500.0, 187500.0, 187500.0, -182658.0757091136, 187500.0, 15324.065425880603, -182241.84152386684, -182223.58014864687, 0.052000000000000005, 0.022, 0.978, 192.0, 0.0, 0.0, 0.0, 0.0, 0.0, 0.0, 0.0, 0.0, 0.0, 1.708991113539123E9, 0.0, 2024-02-26 18:45:13.539
114.0, 187500.0, 187500.0, 187500.0, -182485.22966924068, 187500.0, 14351.250451952274, -182086.1839754801, -182066.13446070367, 0.052000000000000005, 0.022, 0.978, 192.0, 0.0, 0.0, 0.0, 0.0, 0.0, 0.0, 0.0, 0.0, 0.0, 1.708991113543124E9, 0.0, 2024-02-26 18:45:13.543
115.0, 187500.0, 187500.0, 187500.0, -182431.3172616145, 187500.0, 14113.472594436716, -182054.08687044226, -182041.99457669194, 0.052000000000000005, 0.022, 0.978, 192.0, 0.0, 0.0, 0.0, 0.0, 0.0, 0.0, 0.0, 0.0, 0.0, 1.708991113547139E9, 0.0, 2024-02-26 18:45:13.547
116.0, 187500.0, 187500.0, 187500.0, -182534.91759716484, 187500.0, 14811.897553431698, -182160.48117404952, -182148.52299076595, 0.052000000000000005, 0.022, 0.978, 192.0, 0.0, 0.0, 0.0, 0.0, 0.0, 0.0, 0.0, 0.0, 0.0, 1.708991113551132E9, 0.0, 2024-02-26 18:45:13.551
117.0, 187500.0, 187500.0, 187500.0, -182609.99710679022, 187500.0, 15402.09536577408, -182244.5684366904, -182231.73853537304, 0.052000000000000005, 0.02, 0.976, 192.0, 1.0, 160.0, 0.0, 160.0, 30.0, 128.0, 0.0, 0.0, 0.0, 1.708991113555179E9, 0.0, 2024-02-26 18:45:13.555
118.0, 187500.0, 187500.0, 187500.0, -182439.94503497423, 187500.0, 14489.808915830723, -182085.1334434907, -182068.5260973604, 0.052000000000000005, 0.02, 0.976, 192.0, 0.0, 0.0, 0.0, 0.0, 0.0, 0.0, 0.0, 0.0, 0.0, 1.708991113559174E9, 0.0, 2024-02-26 18:45:13.559
119.0, 187500.0, 187500.0, 187500.0, -182371.7051591522, 187500.0, 14103.526068154106, -182043.0227569369, -182019.1510938586, 0.052000000000000005, 0.02, 0.976, 192.0, 0.0, 0.0, 0.0, 0.0, 0.0, 0.0, 0.0, 0.0, 0.0, 1.708991113563175E9, 0.0, 2024-02-26 18:45:13.563
120.0, 187500.0, 187500.0, 187500.0, -182443.18603792024, 187500.0, 14638.55977518079, -182116.44823747256, -182096.1752052516, 0.052000000000000005, 0.02, 0.976, 192.0, 0.0, 0.0, 0.0, 0.0, 0.0, 0.0, 0.0, 0.0, 0.0, 1.70899111356717E9, 0.0, 2024-02-26 18:45:13.567
121.0, 187500.0, 187500.0, 187500.0, -182570.32276038203, 187500.0, 15480.997023701315, -182253.03974783895, -182232.05145979542, 0.052000000000000005, 0.02, 0.976, 192.0, 0.0, 0.0, 0.0, 0.0, 0.0, 0.0, 0.0, 0.0, 0.0, 1.708991113571194E9, 0.0, 2024-02-26 18:45:13.571
122.0, 187500.0, 187500.0, 187500.0, -182435.47468608318, 187500.0, 14735.812215305832, -182136.36364178226, -182114.72715314952, 0.052000000000000005, 0.02, 0.976, 192.0, 0.0, 0.0, 0.0, 0.0, 0.0, 0.0, 0.0, 0.0, 0.0, 1.708991113575189E9, 0.0, 2024-02-26 18:45:13.575
123.0, 187500.0, 187500.0, 187500.0, -182314.17176892422, 187500.0, 14169.687231741815, -182047.09077442775, -182029.969338175, 0.052000000000000005, 0.02, 0.976, 192.0, 0.0, 0.0, 0.0, 0.0, 0.0, 0.0, 0.0, 0.0, 0.0, 1.708991113579179E9, 0.0, 2024-02-26 18:45:13.579
124.0, 187500.0, 187500.0, 187500.0, -182351.9909205426, 187500.0, 14535.473529752915, -182082.9206207896, -182068.34728340476, 0.052000000000000005, 0.02, 0.976, 192.0, 0.0, 0.0, 0.0, 0.0, 0.0, 0.0, 0.0, 0.0, 0.0, 1.70899111358319E9, 0.0, 2024-02-26 18:45:13.583
125.0, 187500.0, 187500.0, 187500.0, -182489.6106111539, 187500.0, 15481.242892890323, -182230.39743070572, -182215.04178226495, 0.052000000000000005, 0.02, 0.976, 192.0, 0.0, 0.0, 0.0, 0.0, 0.0, 0.0, 0.0, 0.0, 0.0, 1.708991113587174E9, 0.0, 2024-02-26 18:45:13.587
126.0, 187500.0, 187500.0, 187500.0, -182395.7556361861, 187500.0, 14964.112933172339, -182157.57544727033, -182137.0341941159, 0.052000000000000005, 0.02, 0.976, 192.0, 0.0, 0.0, 0.0, 0.0, 0.0, 0.0, 0.0, 0.0, 0.0, 1.708991113592205E9, 0.0, 2024-02-26 18:45:13.592
127.0, 187500.0, 187500.0, 187500.0, -182245.775430891, 187500.0, 14213.921334018867, -182064.07810021378, -182039.89351271314, 0.056, 0.02, 0.974, 192.0, 1.0, 192.0, 0.0, 160.0, 30.0, 112.0, 0.0, 0.0, 0.0, 1.708991113595188E9, 0.0, 2024-02-26 18:45:13.595
128.0, 187500.0, 187500.0, 187500.0, -182255.02905309547, 187500.0, 14419.289162074228, -182066.26857117043, -182048.67774828407, 0.056, 0.02, 0.974, 192.0, 0.0, 0.0, 0.0, 0.0, 0.0, 0.0, 0.0, 0.0, 0.0, 1.708991113599184E9, 0.0, 2024-02-26 18:45:13.599
129.0, 187500.0, 187500.0, 187500.0, -182393.67692395175, 187500.0, 15398.407327938954, -182212.11370374128, -182193.38294188774, 0.056, 0.02, 0.974, 192.0, 0.0, 0.0, 0.0, 0.0, 0.0, 0.0, 0.0, 0.0, 0.0, 1.708991113603236E9, 0.0, 2024-02-26 18:45:13.603
130.0, 187500.0, 187500.0, 187500.0, -182348.8393245744, 187500.0, 15199.879133686916, -182183.92815398314, -182164.1468601402, 0.056, 0.02, 0.974, 192.0, 0.0, 0.0, 0.0, 0.0, 0.0, 0.0, 0.0, 0.0, 0.0, 1.708991113607203E9, 0.0, 2024-02-26 18:45:13.607
131.0, 187500.0, 187500.0, 187500.0, -182182.497642338, 187500.0, 14330.172756930919, -182076.3715596642, -182049.79533550685, 0.056, 0.02, 0.974, 192.0, 0.0, 0.0, 0.0, 0.0, 0.0, 0.0, 0.0, 0.0, 0.0, 1.708991113611224E9, 0.0, 2024-02-26 18:45:13.611
132.0, 187500.0, 187500.0, 187500.0, -182169.08659566482, 187500.0, 14368.37188820504, -182059.22777166698, -182036.7642684894, 0.056, 0.02, 0.974, 192.0, 0.0, 0.0, 0.0, 0.0, 0.0, 0.0, 0.0, 0.0, 0.0, 1.708991113615211E9, 0.0, 2024-02-26 18:45:13.615
133.0, 187500.0, 187500.0, 187500.0, -182303.26411763002, 187500.0, 15282.580588171553, -182199.90965126868, -182178.78725275843, 0.056, 0.02, 0.974, 192.0, 0.0, 0.0, 0.0, 0.0, 0.0, 0.0, 0.0, 0.0, 0.0, 1.708991113619215E9, 0.0, 2024-02-26 18:45:13.619
134.0, 187500.0, 187500.0, 187500.0, -182306.66158278723, 187500.0, 15378.022536995715, -182213.2536427085, -182192.13124419824, 0.056, 0.02, 0.974, 192.0, 0.0, 0.0, 0.0, 0.0, 0.0, 0.0, 0.0, 0.0, 0.0, 1.708991113623206E9, 0.0, 2024-02-26 18:45:13.623
135.0, 187500.0, 187500.0, 187500.0, -182126.73003992203, 187500.0, 14386.253283769285, -182087.21215572502, -182059.74186178946, 0.056, 0.02, 0.974, 192.0, 0.0, 0.0, 0.0, 0.0, 0.0, 0.0, 0.0, 0.0, 0.0, 1.708991113626254E9, 0.0, 2024-02-26 18:45:13.626
136.0, 187500.0, 187500.0, 187500.0, -182076.66213234214, 187500.0, 14217.47526138726, -182049.79533550685, -182024.42610555008, 0.056, 0.02, 0.974, 192.0, 0.0, 0.0, 0.0, 0.0, 0.0, 0.0, 0.0, 0.0, 0.0, 1.708991113631245E9, 0.0, 2024-02-26 18:45:13.631
137.0, 187500.0, 187500.0, 187500.0, -182186.8562325068, 187500.0, 14972.96422397664, -182159.3859385712, -182136.31893829335, 0.058, 0.014, 0.974, 192.0, 1.0, 208.0, 0.0, 112.0, 30.0, 112.0, 0.0, 0.0, 0.0, 1.708991113635241E9, 0.0, 2024-02-26 18:45:13.635
138.0, 187500.0, 187500.0, 187500.0, -182253.3750240058, 187500.0, 15368.411286879933, -182233.9066545852, -182211.19728221864, 0.058, 0.014, 0.974, 192.0, 0.0, 0.0, 0.0, 0.0, 0.0, 0.0, 0.0, 0.0, 0.0, 1.708991113639247E9, 0.0, 2024-02-26 18:45:13.639
139.0, 187500.0, 187500.0, 187500.0, -182092.59892613877, 187500.0, 14374.898597585989, -182099.0809320308, -182074.09168172977, 0.058, 0.014, 0.974, 192.0, 0.0, 0.0, 0.0, 0.0, 0.0, 0.0, 0.0, 0.0, 0.0, 1.708991113643262E9, 0.0, 2024-02-26 18:45:13.643
140.0, 187500.0, 187500.0, 187500.0, -182016.04420137932, 187500.0, 14041.432922057264, -182061.79822227935, -182036.65250976713, 0.058, 0.014, 0.974, 192.0, 0.0, 0.0, 0.0, 0.0, 0.0, 0.0, 0.0, 0.0, 0.0, 1.708991113647274E9, 0.0, 2024-02-26 18:45:13.647
141.0, 187500.0, 187500.0, 187500.0, -182104.66886814462, 187500.0, 14656.552929467312, -182145.9972436425, -182123.51138872045, 0.058, 0.014, 0.974, 192.0, 0.0, 0.0, 0.0, 0.0, 0.0, 0.0, 0.0, 0.0, 0.0, 1.708991113650266E9, 0.0, 2024-02-26 18:45:13.650
142.0, 187500.0, 187500.0, 187500.0, -182217.8133985774, 187500.0, 15318.633951977963, -182268.90948640223, -182246.44598322464, 0.058, 0.014, 0.974, 192.0, 0.0, 0.0, 0.0, 0.0, 0.0, 0.0, 0.0, 0.0, 0.0, 1.708991113654264E9, 0.0, 2024-02-26 18:45:13.654
143.0, 187500.0, 187500.0, 187500.0, -181984.5058899529, 187500.0, 14405.56519097867, -182125.29952827687, -182101.71843787652, 0.058, 0.014, 0.974, 192.0, 0.0, 0.0, 0.0, 0.0, 0.0, 0.0, 0.0, 0.0, 0.0, 1.708991113659283E9, 0.0, 2024-02-26 18:45:13.659
144.0, 187500.0, 187500.0, 187500.0, -181825.5626351312, 187500.0, 13914.162089128744, -182049.61652155122, -182028.2706055964, 0.058, 0.014, 0.974, 192.0, 0.0, 0.0, 0.0, 0.0, 0.0, 0.0, 0.0, 0.0, 0.0, 1.708991113663281E9, 0.0, 2024-02-26 18:45:13.663
145.0, 187500.0, 187500.0, 187500.0, -182202.41304664768, 187500.0, 14382.699356400892, -182098.1421587637, -182078.60673410975, 0.058, 0.014, 0.974, 192.0, 0.0, 0.0, 0.0, 0.0, 0.0, 0.0, 0.0, 0.0, 0.0, 1.708991113667274E9, 0.0, 2024-02-26 18:45:13.667
146.0, 187500.0, 187500.0, 187500.0, -182729.95891928184, 187500.0, 15250.908166278383, -182242.5791314339, -182223.22252073558, 0.058, 0.014, 0.974, 192.0, 0.0, 0.0, 0.0, 0.0, 0.0, 0.0, 0.0, 0.0, 0.0, 1.708991113671255E9, 0.0, 2024-02-26 18:45:13.671
147.0, 187500.0, 187500.0, 187500.0, -182683.6684565149, 187500.0, 14552.952593916965, -182144.61143548627, -182123.57844395383, 0.058, 0.014, 0.974, 192.0, 1.0, 208.0, 0.0, 112.0, 30.0, 112.0, 0.0, 0.0, 0.0, 1.708991113675274E9, 0.0, 2024-02-26 18:45:13.675
148.0, 187500.0, 187500.0, 187500.0, -182560.8903242219, 187500.0, 13913.51388853954, -182058.73603328897, -182032.3162713428, 0.058, 0.014, 0.974, 192.0, 0.0, 0.0, 0.0, 0.0, 0.0, 0.0, 0.0, 0.0, 0.0, 1.708991113678282E9, 0.0, 2024-02-26 18:45:13.678
149.0, 187500.0, 187500.0, 187500.0, -182591.98160075923, 187500.0, 14228.38291268145, -182093.49299591698, -182068.7272630605, 0.058, 0.014, 0.974, 192.0, 0.0, 0.0, 0.0, 0.0, 0.0, 0.0, 0.0, 0.0, 0.0, 1.708991113682306E9, 0.0, 2024-02-26 18:45:13.682
150.0, 187500.0, 187500.0, 187500.0, -182732.37290768302, 187500.0, 15219.548668807587, -182241.14861978873, -182218.37219218878, 0.058, 0.014, 0.974, 192.0, 0.0, 0.0, 0.0, 0.0, 0.0, 0.0, 0.0, 0.0, 0.0, 1.708991113686294E9, 0.0, 2024-02-26 18:45:13.686
151.0, 187500.0, 187500.0, 187500.0, -182655.72877594578, 187500.0, 14836.953858966097, -182171.79115674392, -182149.17119135516, 0.058, 0.014, 0.974, 192.0, 0.0, 0.0, 0.0, 0.0, 0.0, 0.0, 0.0, 0.0, 0.0, 1.708991113691311E9, 0.0, 2024-02-26 18:45:13.691
152.0, 187500.0, 187500.0, 187500.0, -182509.39190499688, 187500.0, 14082.671890577305, -182050.37648086267, -182031.64571900913, 0.058, 0.014, 0.974, 192.0, 0.0, 0.0, 0.0, 0.0, 0.0, 0.0, 0.0, 0.0, 0.0, 1.708991113695325E9, 0.0, 2024-02-26 18:45:13.695
153.0, 187500.0, 187500.0, 187500.0, -182513.0352393431, 187500.0, 14247.471302446284, -182066.73795780397, -182049.52711457337, 0.058, 0.014, 0.974, 192.0, 0.0, 0.0, 0.0, 0.0, 0.0, 0.0, 0.0, 0.0, 0.0, 1.708991113699306E9, 0.0, 2024-02-26 18:45:13.699
154.0, 187500.0, 187500.0, 187500.0, -182665.29532257264, 187500.0, 15211.032654170116, -182225.18947424766, -182208.87270079527, 0.058, 0.014, 0.974, 192.0, 0.0, 0.0, 0.0, 0.0, 0.0, 0.0, 0.0, 0.0, 0.0, 1.708991113702324E9, 0.0, 2024-02-26 18:45:13.702
155.0, 187500.0, 187500.0, 187500.0, -182648.0621275976, 187500.0, 15076.095172893427, -182216.1146659988, -182198.36738090127, 0.058, 0.014, 0.974, 192.0, 0.0, 0.0, 0.0, 0.0, 0.0, 0.0, 0.0, 0.0, 0.0, 1.708991113706316E9, 0.0, 2024-02-26 18:45:13.706
156.0, 187500.0, 187500.0, 187500.0, -182479.46291917123, 187500.0, 14136.9866296037, -182060.70298680104, -182044.36386160422, 0.058, 0.014, 0.974, 192.0, 0.0, 0.0, 0.0, 0.0, 0.0, 0.0, 0.0, 0.0, 0.0, 1.70899111371032E9, 0.0, 2024-02-26 18:45:13.710
157.0, 187500.0, 187500.0, 187500.0, -182463.90610503033, 187500.0, 14097.714614595727, -182053.46102159753, -182039.64764352413, 0.054, 0.018000000000000002, 0.976, 192.0, 1.0, 176.0, 0.0, 144.0, 30.0, 128.0, 0.0, 0.0, 0.0, 1.708991113714309E9, 0.0, 2024-02-26 18:45:13.714
158.0, 187500.0, 187500.0, 187500.0, -182590.1934612028, 187500.0, 14949.606651020844, -182188.33144764084, -182173.2440201335, 0.054, 0.018000000000000002, 0.976, 192.0, 0.0, 0.0, 0.0, 0.0, 0.0, 0.0, 0.0, 0.0, 0.0, 1.708991113719309E9, 0.0, 2024-02-26 18:45:13.719
159.0, 187500.0, 187500.0, 187500.0, -182617.68610688284, 187500.0, 15139.03768527957, -182224.54127365843, -182207.1516164722, 0.054, 0.018000000000000002, 0.976, 192.0, 0.0, 0.0, 0.0, 0.0, 0.0, 0.0, 0.0, 0.0, 0.0, 1.708991113723342E9, 0.0, 2024-02-26 18:45:13.723
160.0, 187500.0, 187500.0, 187500.0, -182450.3609478904, 187500.0, 14147.715466942247, -182099.0809320308, -182071.2753619284, 0.054, 0.018000000000000002, 0.976, 192.0, 0.0, 0.0, 0.0, 0.0, 0.0, 0.0, 0.0, 0.0, 0.0, 1.708991113727339E9, 0.0, 2024-02-26 18:45:13.727
161.0, 187500.0, 187500.0, 187500.0, -182378.9471243557, 187500.0, 13931.730560270616, -182079.14317597667, -182050.51059132942, 0.054, 0.018000000000000002, 0.976, 192.0, 0.0, 0.0, 0.0, 0.0, 0.0, 0.0, 0.0, 0.0, 0.0, 1.708991113730341E9, 0.0, 2024-02-26 18:45:13.730
162.0, 187500.0, 187500.0, 187500.0, -182491.35404722145, 187500.0, 14675.909540165609, -182180.01659870346, -182157.95542692608, 0.054, 0.018000000000000002, 0.976, 192.0, 0.0, 0.0, 0.0, 0.0, 0.0, 0.0, 0.0, 0.0, 0.0, 1.708991113734323E9, 0.0, 2024-02-26 18:45:13.734
163.0, 187500.0, 187500.0, 187500.0, -182569.76396677067, 187500.0, 15187.473915514222, -182267.23310556807, -182244.8143058794, 0.054, 0.018000000000000002, 0.976, 192.0, 0.0, 0.0, 0.0, 0.0, 0.0, 0.0, 0.0, 0.0, 0.0, 1.708991113738344E9, 0.0, 2024-02-26 18:45:13.738
164.0, 187500.0, 187500.0, 187500.0, -182407.55735725848, 187500.0, 14254.802674627625, -182110.5920804253, -182087.0780452583, 0.054, 0.018000000000000002, 0.976, 192.0, 0.0, 0.0, 0.0, 0.0, 0.0, 0.0, 0.0, 0.0, 0.0, 1.708991113742341E9, 0.0, 2024-02-26 18:45:13.742
165.0, 187500.0, 187500.0, 187500.0, -182325.05706847395, 187500.0, 13922.856917721858, -182045.50380057143, -182024.3590503167, 0.054, 0.018000000000000002, 0.976, 192.0, 0.0, 0.0, 0.0, 0.0, 0.0, 0.0, 0.0, 0.0, 0.0, 1.708991113747388E9, 0.0, 2024-02-26 18:45:13.747
166.0, 187500.0, 187500.0, 187500.0, -182406.77504620256, 187500.0, 14548.281079325805, -182134.82137141484, -182115.06242931634, 0.054, 0.018000000000000002, 0.976, 192.0, 0.0, 0.0, 0.0, 0.0, 0.0, 0.0, 0.0, 0.0, 0.0, 1.708991113751385E9, 0.0, 2024-02-26 18:45:13.751
167.0, 187500.0, 187500.0, 187500.0, -182518.64552720138, 187500.0, 15327.664056737907, -182253.97852110607, -182234.04076505193, 0.05, 0.02, 0.98, 192.0, 1.0, 144.0, 0.0, 160.0, 30.0, 160.0, 0.0, 0.0, 0.0, 1.708991113755378E9, 0.0, 2024-02-26 18:45:13.755
168.0, 187500.0, 187500.0, 187500.0, -182378.7906621445, 187500.0, 14525.191727303474, -182122.6396706867, -182102.21017625454, 0.05, 0.02, 0.98, 192.0, 0.0, 0.0, 0.0, 0.0, 0.0, 0.0, 0.0, 0.0, 0.0, 1.708991113758402E9, 0.0, 2024-02-26 18:45:13.758
169.0, 187500.0, 187500.0, 187500.0, -182276.3749690503, 187500.0, 14046.998506426635, -182041.5251900584, -182021.34156481523, 0.05, 0.02, 0.98, 192.0, 0.0, 0.0, 0.0, 0.0, 0.0, 0.0, 0.0, 0.0, 0.0, 1.708991113762386E9, 0.0, 2024-02-26 18:45:13.762
170.0, 187500.0, 187500.0, 187500.0, -182310.59548981139, 187500.0, 14493.072270521197, -182088.4191499256, -182065.30744615884, 0.05, 0.02, 0.98, 192.0, 0.0, 0.0, 0.0, 0.0, 0.0, 0.0, 0.0, 0.0, 0.0, 1.708991113766378E9, 0.0, 2024-02-26 18:45:13.766
171.0, 187500.0, 187500.0, 187500.0, -182451.70205255772, 187500.0, 15450.553947753186, -182235.24775925252, -182213.92419504217, 0.05, 0.02, 0.98, 192.0, 0.0, 0.0, 0.0, 0.0, 0.0, 0.0, 0.0, 0.0, 0.0, 1.708991113770394E9, 0.0, 2024-02-26 18:45:13.770
172.0, 187500.0, 187500.0, 187500.0, -182354.47196417715, 187500.0, 14864.51355987949, -182147.74067971, -182126.19359805508, 0.05, 0.02, 0.98, 192.0, 0.0, 0.0, 0.0, 0.0, 0.0, 0.0, 0.0, 0.0, 0.0, 1.708991113775385E9, 0.0, 2024-02-26 18:45:13.775
173.0, 187500.0, 187500.0, 187500.0, -182229.5704161609, 187500.0, 14189.692043029314, -182051.73993727445, -182035.4231638221, 0.05, 0.02, 0.98, 192.0, 0.0, 0.0, 0.0, 0.0, 0.0, 0.0, 0.0, 0.0, 0.0, 1.708991113779395E9, 0.0, 2024-02-26 18:45:13.779
174.0, 187500.0, 187500.0, 187500.0, -182252.48095422756, 187500.0, 14448.122912421575, -182078.6737893431, -182062.28996065736, 0.05, 0.02, 0.98, 192.0, 0.0, 0.0, 0.0, 0.0, 0.0, 0.0, 0.0, 0.0, 0.0, 1.708991113783385E9, 0.0, 2024-02-26 18:45:13.783
175.0, 187500.0, 187500.0, 187500.0, -182391.06176985046, 187500.0, 15422.90483986197, -182224.764791103, -182208.29155543944, 0.05, 0.02, 0.98, 192.0, 0.0, 0.0, 0.0, 0.0, 0.0, 0.0, 0.0, 0.0, 0.0, 1.708991113786379E9, 0.0, 2024-02-26 18:45:13.786
176.0, 187500.0, 187500.0, 187500.0, -182321.70430680565, 187500.0, 15106.828821519473, -182172.01467418848, -182152.3004355789, 0.05, 0.02, 0.98, 192.0, 0.0, 0.0, 0.0, 0.0, 0.0, 0.0, 0.0, 0.0, 0.0, 1.708991113790379E9, 0.0, 2024-02-26 18:45:13.790
177.0, 187500.0, 187500.0, 187500.0, -182159.2518281045, 187500.0, 14279.993090628755, -182066.93912350407, -182040.40760283562, 0.048, 0.016, 0.98, 192.0, 1.0, 128.0, 0.0, 128.0, 30.0, 160.0, 0.0, 0.0, 0.0, 1.708991113794386E9, 0.0, 2024-02-26 18:45:13.794
178.0, 187500.0, 187500.0, 187500.0, -182149.32765356635, 187500.0, 14367.567225404648, -182056.67967279907, -182036.09371615574, 0.048, 0.016, 0.98, 192.0, 0.0, 0.0, 0.0, 0.0, 0.0, 0.0, 0.0, 0.0, 0.0, 1.708991113798433E9, 0.0, 2024-02-26 18:45:13.798
179.0, 187500.0, 187500.0, 187500.0, -182282.9240301757, 187500.0, 15306.429899505365, -182195.37224714426, -182175.72506376804, 0.048, 0.016, 0.98, 192.0, 0.0, 0.0, 0.0, 0.0, 0.0, 0.0, 0.0, 0.0, 0.0, 1.708991113803424E9, 0.0, 2024-02-26 18:45:13.803
180.0, 187500.0, 187500.0, 187500.0, -182276.33026556138, 187500.0, 15308.709777439808, -182197.13803495624, -182177.08852017982, 0.048, 0.016, 0.98, 192.0, 0.0, 0.0, 0.0, 0.0, 0.0, 0.0, 0.0, 0.0, 0.0, 1.708991113807438E9, 0.0, 2024-02-26 18:45:13.807
181.0, 187500.0, 187500.0, 187500.0, -182116.18001653912, 187500.0, 14394.389318751017, -182066.73795780397, -182047.09077442775, 0.048, 0.016, 0.98, 192.0, 0.0, 0.0, 0.0, 0.0, 0.0, 0.0, 0.0, 0.0, 0.0, 1.708991113810424E9, 0.0, 2024-02-26 18:45:13.810
182.0, 187500.0, 187500.0, 187500.0, -182081.19953646656, 187500.0, 14345.260184438252, -182049.46005934002, -182031.75747773141, 0.048, 0.016, 0.98, 192.0, 0.0, 0.0, 0.0, 0.0, 0.0, 0.0, 0.0, 0.0, 0.0, 1.708991113814418E9, 0.0, 2024-02-26 18:45:13.814
183.0, 187500.0, 187500.0, 187500.0, -182201.87660478076, 187500.0, 15208.149279135381, -182172.68522652212, -182155.11675538027, 0.048, 0.016, 0.98, 192.0, 0.0, 0.0, 0.0, 0.0, 0.0, 0.0, 0.0, 0.0, 0.0, 1.708991113818419E9, 0.0, 2024-02-26 18:45:13.818
184.0, 187500.0, 187500.0, 187500.0, -182249.68698617065, 187500.0, 15530.975524303381, -182231.17974176168, -182212.51603514148, 0.048, 0.016, 0.98, 192.0, 0.0, 0.0, 0.0, 0.0, 0.0, 0.0, 0.0, 0.0, 0.0, 1.70899111382242E9, 0.0, 2024-02-26 18:45:13.822
185.0, 187500.0, 187500.0, 187500.0, -181997.11227382568, 187500.0, 14533.014837862831, -182108.46866470203, -182080.14900447716, 0.048, 0.016, 0.98, 192.0, 0.0, 0.0, 0.0, 0.0, 0.0, 0.0, 0.0, 0.0, 0.0, 1.708991113826429E9, 0.0, 2024-02-26 18:45:13.826
186.0, 187500.0, 187500.0, 187500.0, -181837.9678533039, 187500.0, 14286.743317454258, -182060.90415250114, -182034.59614927723, 0.058, 0.016, 0.978, 192.0, 1.0, 208.0, 0.0, 128.0, 30.0, 144.0, 0.0, 0.0, 0.0, 1.708991113831437E9, 0.0, 2024-02-26 18:45:13.831
187.0, 187500.0, 187500.0, 187500.0, -182253.8220588949, 187500.0, 14985.078869471416, -182140.5881214843, -182120.80682764135, 0.058, 0.016, 0.978, 192.0, 0.0, 0.0, 0.0, 0.0, 0.0, 0.0, 0.0, 0.0, 0.0, 1.70899111383548E9, 0.0, 2024-02-26 18:45:13.835
188.0, 187500.0, 187500.0, 187500.0, -182708.14361669347, 187500.0, 15557.082361827179, -182238.77933487648, -182217.76869508848, 0.058, 0.016, 0.978, 192.0, 0.0, 0.0, 0.0, 0.0, 0.0, 0.0, 0.0, 0.0, 0.0, 1.708991113838459E9, 0.0, 2024-02-26 18:45:13.838
189.0, 187500.0, 187500.0, 187500.0, -182608.87951956745, 187500.0, 14615.60453362519, -182108.9827548245, -182085.8263475688, 0.058, 0.016, 0.978, 192.0, 0.0, 0.0, 0.0, 0.0, 0.0, 0.0, 0.0, 0.0, 0.0, 1.708991113842479E9, 0.0, 2024-02-26 18:45:13.842
190.0, 187500.0, 187500.0, 187500.0, -182514.9351376218, 187500.0, 14174.671670755348, -182053.25985589743, -182032.60684402072, 0.058, 0.016, 0.978, 192.0, 0.0, 0.0, 0.0, 0.0, 0.0, 0.0, 0.0, 0.0, 0.0, 1.708991113846471E9, 0.0, 2024-02-26 18:45:13.846
191.0, 187500.0, 187500.0, 187500.0, -182581.81155703208, 187500.0, 14669.405182529115, -182120.44919973006, -182102.16547276563, 0.058, 0.016, 0.978, 192.0, 0.0, 0.0, 0.0, 0.0, 0.0, 0.0, 0.0, 0.0, 0.0, 1.708991113850496E9, 0.0, 2024-02-26 18:45:13.850
192.0, 187500.0, 187500.0, 187500.0, -182705.5284625922, 187500.0, 15447.58116574063, -182253.19621005014, -182233.48197144057, 0.058, 0.016, 0.978, 192.0, 0.0, 0.0, 0.0, 0.0, 0.0, 0.0, 0.0, 0.0, 0.0, 1.708991113854459E9, 0.0, 2024-02-26 18:45:13.854
193.0, 187500.0, 187500.0, 187500.0, -182579.57638258653, 187500.0, 14662.722010936977, -182135.38016502623, -182114.7942083829, 0.058, 0.016, 0.978, 192.0, 0.0, 0.0, 0.0, 0.0, 0.0, 0.0, 0.0, 0.0, 0.0, 1.708991113859489E9, 0.0, 2024-02-26 18:45:13.859
194.0, 187500.0, 187500.0, 187500.0, -182466.72242483168, 187500.0, 14066.69039329176, -182038.4182975791, -182020.22397759248, 0.058, 0.016, 0.978, 192.0, 0.0, 0.0, 0.0, 0.0, 0.0, 0.0, 0.0, 0.0, 0.0, 1.708991113863496E9, 0.0, 2024-02-26 18:45:13.863
195.0, 187500.0, 187500.0, 187500.0, -182507.2237857847, 187500.0, 14420.831432441644, -182083.1664899786, -182064.72630080298, 0.058, 0.016, 0.978, 192.0, 0.0, 0.0, 0.0, 0.0, 0.0, 0.0, 0.0, 0.0, 0.0, 1.708991113866477E9, 0.0, 2024-02-26 18:45:13.866
196.0, 187500.0, 187500.0, 187500.0, -182644.73171767377, 187500.0, 15344.763141246218, -182231.29150048393, -182212.02429676347, 0.052000000000000005, 0.018000000000000002, 0.984, 192.0, 1.0, 160.0, 0.0, 144.0, 30.0, 192.0, 0.0, 0.0, 0.0, 1.708991113870471E9, 0.0, 2024-02-26 18:45:13.870
197.0, 187500.0, 187500.0, 187500.0, -182547.25576010416, 187500.0, 14805.415547539658, -182156.5919705143, -182134.06141210336, 0.052000000000000005, 0.018000000000000002, 0.984, 192.0, 0.0, 0.0, 0.0, 0.0, 0.0, 0.0, 0.0, 0.0, 0.0, 1.708991113874514E9, 0.0, 2024-02-26 18:45:13.874
198.0, 187500.0, 187500.0, 187500.0, -182399.01899087656, 187500.0, 14074.64761431785, -182064.63689382517, -182038.50770455692, 0.052000000000000005, 0.018000000000000002, 0.984, 192.0, 0.0, 0.0, 0.0, 0.0, 0.0, 0.0, 0.0, 0.0, 0.0, 1.708991113878523E9, 0.0, 2024-02-26 18:45:13.878
199.0, 187500.0, 187500.0, 187500.0, -182409.23373809265, 187500.0, 14280.127201095487, -182068.05671072684, -182048.23071339497, 0.052000000000000005, 0.018000000000000002, 0.984, 192.0, 0.0, 0.0, 0.0, 0.0, 0.0, 0.0, 0.0, 0.0, 0.0, 1.708991113882526E9, 0.0, 2024-02-26 18:45:13.882
200.0, 187500.0, 187500.0, 187500.0, -182556.9787689422, 187500.0, 15257.25606170369, -182224.1165905138, -182204.5588141154, 0.052000000000000005, 0.018000000000000002, 0.984, 192.0, 0.0, 0.0, 0.0, 0.0, 0.0, 0.0, 0.0, 0.0, 0.0, 1.708991113886515E9, 0.0, 2024-02-26 18:45:13.886
201.0, 187500.0, 187500.0, 187500.0, -182528.10031510596, 187500.0, 15028.284791503525, -182204.46940713757, -182183.72698828304, 0.052000000000000005, 0.018000000000000002, 0.984, 192.0, 0.0, 0.0, 0.0, 0.0, 0.0, 0.0, 0.0, 0.0, 0.0, 1.708991113891508E9, 0.0, 2024-02-26 18:45:13.891
202.0, 187500.0, 187500.0, 187500.0, -182357.75767061207, 187500.0, 14128.649428921872, -182070.94008576157, -182049.70592852903, 0.052000000000000005, 0.018000000000000002, 0.984, 192.0, 0.0, 0.0, 0.0, 0.0, 0.0, 0.0, 0.0, 0.0, 0.0, 1.708991113894529E9, 0.0, 2024-02-26 18:45:13.894
203.0, 187500.0, 187500.0, 187500.0, -182326.77815279702, 187500.0, 14161.66295548236, -182044.8779517267, -182028.7176404855, 0.052000000000000005, 0.018000000000000002, 0.984, 192.0, 0.0, 0.0, 0.0, 0.0, 0.0, 0.0, 0.0, 0.0, 0.0, 1.708991113898524E9, 0.0, 2024-02-26 18:45:13.898
204.0, 187500.0, 187500.0, 187500.0, -182476.51248890313, 187500.0, 15096.524667325577, -182200.17787220216, -182184.39754061672, 0.052000000000000005, 0.018000000000000002, 0.984, 192.0, 0.0, 0.0, 0.0, 0.0, 0.0, 0.0, 0.0, 0.0, 0.0, 1.708991113902524E9, 0.0, 2024-02-26 18:45:13.902
