%OpenBCI Raw EXG Data
%Number of channels = 8
%Sample Rate = 250 Hz
%Board = OpenBCI_GUI$BoardCytonSerial
Sample Index, EXG Channel 0, EXG Channel 1, EXG Channel 2, EXG Channel 3, EXG Channel 4, EXG Channel 5, EXG Channel 6, EXG Channel 7, Accel Channel 0, Accel Channel 1, Accel Channel 2, Other, Other, Other, Other, Other, Other, Other, Analog Channel 0, Analog Channel 1, Analog Channel 2, Timestamp, Other, Timestamp (Formatted)
219.0, 187500.0, 187500.0, 187500.0, 187500.0, -12886.808858729466, 187500.0, 187500.0, -182938.8806747056, 0.0, 0.0, 0.0, 192.0, 0.0, 0.0, 0.0, 0.0, 0.0, 0.0, 0.0, 0.0, 0.0, 1.708992572730264E9, 0.0, 2024-02-26 19:09:32.730
220.0, 187500.0, 187500.0, 187500.0, 187500.0, -12988.799868679032, 187500.0, 187500.0, -182810.62636502105, 0.0, 0.0, 0.0, 192.0, 0.0, 0.0, 0.0, 0.0, 0.0, 0.0, 0.0, 0.0, 0.0, 1.708992572730274E9, 0.0, 2024-02-26 19:09:32.730
0.0, 0.0, 0.0, 0.0, 0.0, 0.0, 0.0, 0.0, 0.0, 0.062, -0.004, 0.982, 192.0, 1.0, 240.0, 255.0, 224.0, 30.0, 176.0, 0.0, 0.0, 0.0, 1.708992572834281E9, 0.0, 2024-02-26 19:09:32.834
1.0, 187500.0, 187500.0, 187500.0, 187500.0, -2891.8686976276276, 187500.0, 187500.0, -181991.88196562315, 0.062, -0.004, 0.982, 192.0, 0.0, 0.0, 0.0, 0.0, 0.0, 0.0, 0.0, 0.0, 0.0, 1.708992572851268E9, 0.0, 2024-02-26 19:09:32.851
2.0, 187500.0, 187500.0, 187500.0, 187500.0, -2796.1808796144583, 187500.0, 187500.0, -182103.99831581098, 0.062, -0.004, 0.982, 192.0, 0.0, 0.0, 0.0, 0.0, 0.0, 0.0, 0.0, 0.0, 0.0, 1.708992572854271E9, 0.0, 2024-02-26 19:09:32.854
3.0, 187500.0, 187500.0, 187500.0, 187500.0, -2821.8406822491506, 187500.0, 187500.0, -182171.83586023282, 0.062, -0.004, 0.982, 192.0, 0.0, 0.0, 0.0, 0.0, 0.0, 0.0, 0.0, 0.0, 0.0, 1.708992572858263E9, 0.0, 2024-02-26 19:09:32.858
4.0, 187500.0, 187500.0, 187500.0, 187500.0, -2954.6547478025855, 187500.0, 187500.0, -182016.64769847962, 0.062, -0.004, 0.982, 192.0, 0.0, 0.0, 0.0, 0.0, 0.0, 0.0, 0.0, 0.0, 0.0, 1.708992572862283E9, 0.0, 2024-02-26 19:09:32.862
5.0, 187500.0, 187500.0, 187500.0, 187500.0, -2933.8676254591496, 187500.0, 187500.0, -181965.1939827435, 0.062, -0.004, 0.982, 192.0, 0.0, 0.0, 0.0, 0.0, 0.0, 0.0, 0.0, 0.0, 0.0, 1.708992572866264E9, 0.0, 2024-02-26 19:09:32.866
6.0, 187500.0, 187500.0, 187500.0, 187500.0, -2846.964043016916, 187500.0, 187500.0, -182052.43284135257, 0.062, -0.004, 0.982, 192.0, 0.0, 0.0, 0.0, 0.0, 0.0, 0.0, 0.0, 0.0, 0.0, 1.708992572869281E9, 0.0, 2024-02-26 19:09:32.869
7.0, 187500.0, 187500.0, 187500.0, 187500.0, -2818.420865347489, 187500.0, 187500.0, -182146.9360169096, 0.062, -0.004, 0.982, 192.0, 0.0, 0.0, 0.0, 0.0, 0.0, 0.0, 0.0, 0.0, 0.0, 1.708992572873266E9, 0.0, 2024-02-26 19:09:32.873
8.0, 187500.0, 187500.0, 187500.0, 187500.0, -2934.24760511489, 187500.0, 187500.0, -182026.63892825114, 0.062, 0.002, 0.984, 192.0, 1.0, 240.0, 0.0, 16.0, 30.0, 192.0, 0.0, 0.0, 0.0, 1.708992572878306E9, 0.0, 2024-02-26 19:09:32.878
9.0, 187500.0, 187500.0, 187500.0, 187500.0, -2937.220387127446, 187500.0, 187500.0, -181970.04431129032, 0.062, 0.002, 0.984, 192.0, 0.0, 0.0, 0.0, 0.0, 0.0, 0.0, 0.0, 0.0, 0.0, 1.708992572882302E9, 0.0, 2024-02-26 19:09:32.882
10.0, 187500.0, 187500.0, 187500.0, 187500.0, -2892.539249961287, 187500.0, 187500.0, -182030.5728352753, 0.062, 0.002, 0.984, 192.0, 0.0, 0.0, 0.0, 0.0, 0.0, 0.0, 0.0, 0.0, 0.0, 1.708992572886301E9, 0.0, 2024-02-26 19:09:32.886
11.0, 187500.0, 187500.0, 187500.0, 187500.0, -2825.5287200842763, 187500.0, 187500.0, -182166.2926276079, 0.062, 0.002, 0.984, 192.0, 0.0, 0.0, 0.0, 0.0, 0.0, 0.0, 0.0, 0.0, 0.0, 1.708992572890305E9, 0.0, 2024-02-26 19:09:32.890
12.0, 187500.0, 187500.0, 187500.0, 187500.0, -2956.9569774814818, 187500.0, 187500.0, -182062.78169903537, 0.062, 0.002, 0.984, 192.0, 0.0, 0.0, 0.0, 0.0, 0.0, 0.0, 0.0, 0.0, 0.0, 1.708992572894323E9, 0.0, 2024-02-26 19:09:32.894
13.0, 187500.0, 187500.0, 187500.0, 187500.0, -2982.0579865047916, 187500.0, 187500.0, -181972.19007875802, 0.062, 0.002, 0.984, 192.0, 0.0, 0.0, 0.0, 0.0, 0.0, 0.0, 0.0, 0.0, 0.0, 1.708992572897308E9, 0.0, 2024-02-26 19:09:32.897
14.0, 187500.0, 187500.0, 187500.0, 187500.0, -2929.2631661013565, 187500.0, 187500.0, -181988.46214872148, 0.062, 0.002, 0.984, 192.0, 0.0, 0.0, 0.0, 0.0, 0.0, 0.0, 0.0, 0.0, 0.0, 1.708992572901331E9, 0.0, 2024-02-26 19:09:32.901
15.0, 187500.0, 187500.0, 187500.0, 187500.0, -2848.1039819841367, 187500.0, 187500.0, -182113.40840022665, 0.062, 0.002, 0.984, 192.0, 0.0, 0.0, 0.0, 0.0, 0.0, 0.0, 0.0, 0.0, 0.0, 1.708992572906322E9, 0.0, 2024-02-26 19:09:32.906
16.0, 187500.0, 187500.0, 187500.0, 187500.0, -2948.1727419105464, 187500.0, 187500.0, -182054.10922218673, 0.062, 0.002, 0.984, 192.0, 0.0, 0.0, 0.0, 0.0, 0.0, 0.0, 0.0, 0.0, 0.0, 1.708992572910314E9, 0.0, 2024-02-26 19:09:32.910
17.0, 187500.0, 187500.0, 187500.0, 187500.0, -2978.1687829695684, 187500.0, 187500.0, -181985.62347717566, 0.06, 0.002, 0.986, 192.0, 1.0, 224.0, 0.0, 16.0, 30.0, 208.0, 0.0, 0.0, 0.0, 1.708992572914303E9, 0.0, 2024-02-26 19:09:32.914
18.0, 187500.0, 187500.0, 187500.0, 187500.0, -2945.1999598979905, 187500.0, 187500.0, -181982.44952946302, 0.06, 0.002, 0.986, 192.0, 0.0, 0.0, 0.0, 0.0, 0.0, 0.0, 0.0, 0.0, 0.0, 1.708992572918352E9, 0.0, 2024-02-26 19:09:32.918
19.0, 187500.0, 187500.0, 187500.0, 187500.0, -2851.412040163522, 187500.0, 187500.0, -182114.05660081585, 0.06, 0.002, 0.986, 192.0, 0.0, 0.0, 0.0, 0.0, 0.0, 0.0, 0.0, 0.0, 0.0, 1.708992572921349E9, 0.0, 2024-02-26 19:09:32.921
20.0, 187500.0, 187500.0, 187500.0, 187500.0, -2927.7208957339403, 187500.0, 187500.0, -182103.90890883314, 0.06, 0.002, 0.986, 192.0, 0.0, 0.0, 0.0, 0.0, 0.0, 0.0, 0.0, 0.0, 0.0, 1.708992572925349E9, 0.0, 2024-02-26 19:09:32.925
21.0, 187500.0, 187500.0, 187500.0, 187500.0, -3009.148300784624, 187500.0, 187500.0, -181993.89362262413, 0.06, 0.002, 0.986, 192.0, 0.0, 0.0, 0.0, 0.0, 0.0, 0.0, 0.0, 0.0, 0.0, 1.708992572929368E9, 0.0, 2024-02-26 19:09:32.929
22.0, 187500.0, 187500.0, 187500.0, 187500.0, -2948.2174453994567, 187500.0, 187500.0, -181995.36883775817, 0.06, 0.002, 0.986, 192.0, 0.0, 0.0, 0.0, 0.0, 0.0, 0.0, 0.0, 0.0, 0.0, 1.708992572934456E9, 0.0, 2024-02-26 19:09:32.934
23.0, 187500.0, 187500.0, 187500.0, 187500.0, -2867.862924082628, 187500.0, 187500.0, -182122.14793230867, 0.06, 0.002, 0.986, 192.0, 0.0, 0.0, 0.0, 0.0, 0.0, 0.0, 0.0, 0.0, 0.0, 1.708992572938357E9, 0.0, 2024-02-26 19:09:32.938
24.0, 187500.0, 187500.0, 187500.0, 187500.0, -2909.6830379585076, 187500.0, 187500.0, -182144.92435990865, 0.06, 0.002, 0.986, 192.0, 0.0, 0.0, 0.0, 0.0, 0.0, 0.0, 0.0, 0.0, 0.0, 1.708992572942364E9, 0.0, 2024-02-26 19:09:32.942
25.0, 187500.0, 187500.0, 187500.0, 187500.0, -3021.3523532572217, 187500.0, 187500.0, -182007.32702104177, 0.06, 0.002, 0.986, 192.0, 0.0, 0.0, 0.0, 0.0, 0.0, 0.0, 0.0, 0.0, 0.0, 1.708992572946366E9, 0.0, 2024-02-26 19:09:32.946
26.0, 187500.0, 187500.0, 187500.0, 187500.0, -3028.2590422939115, 187500.0, 187500.0, -181991.12200631166, 0.06, 0.002, 0.986, 192.0, 0.0, 0.0, 0.0, 0.0, 0.0, 0.0, 0.0, 0.0, 0.0, 1.708992572950362E9, 0.0, 2024-02-26 19:09:32.950
27.0, 187500.0, 187500.0, 187500.0, 187500.0, -2973.1619922115797, 187500.0, 187500.0, -182055.53973383186, 0.064, 0.006, 0.986, 192.0, 2.0, 0.0, 0.0, 48.0, 30.0, 208.0, 0.0, 0.0, 0.0, 1.70899257295447E9, 0.0, 2024-02-26 19:09:32.954
28.0, 187500.0, 187500.0, 187500.0, 187500.0, -2963.7742595403506, 187500.0, 187500.0, -182132.31797603585, 0.064, 0.006, 0.986, 192.0, 0.0, 0.0, 0.0, 0.0, 0.0, 0.0, 0.0, 0.0, 0.0, 1.708992572958465E9, 0.0, 2024-02-26 19:09:32.958
29.0, 187500.0, 187500.0, 187500.0, 187500.0, -3089.1898976790785, 187500.0, 187500.0, -182020.4698467815, 0.064, 0.006, 0.986, 192.0, 0.0, 0.0, 0.0, 0.0, 0.0, 0.0, 0.0, 0.0, 0.0, 1.70899257296147E9, 0.0, 2024-02-26 19:09:32.961
30.0, 187500.0, 187500.0, 187500.0, 187500.0, -3048.4203157925986, 187500.0, 187500.0, -181967.6526746336, 0.064, 0.006, 0.986, 192.0, 0.0, 0.0, 0.0, 0.0, 0.0, 0.0, 0.0, 0.0, 0.0, 1.708992572965467E9, 0.0, 2024-02-26 19:09:32.965
31.0, 187500.0, 187500.0, 187500.0, 187500.0, -2942.897730219094, 187500.0, 187500.0, -182028.78469571887, 0.064, 0.006, 0.986, 192.0, 0.0, 0.0, 0.0, 0.0, 0.0, 0.0, 0.0, 0.0, 0.0, 1.70899257296946E9, 0.0, 2024-02-26 19:09:32.969
32.0, 187500.0, 187500.0, 187500.0, 187500.0, -2876.5801044201976, 187500.0, 187500.0, -182129.74752542347, 0.064, 0.006, 0.986, 192.0, 0.0, 0.0, 0.0, 0.0, 0.0, 0.0, 0.0, 0.0, 0.0, 1.70899257297346E9, 0.0, 2024-02-26 19:09:32.973
33.0, 187500.0, 187500.0, 187500.0, 187500.0, -2989.3893586861323, 187500.0, 187500.0, -182027.08596314027, 0.064, 0.006, 0.986, 192.0, 0.0, 0.0, 0.0, 0.0, 0.0, 0.0, 0.0, 0.0, 0.0, 1.708992572978467E9, 0.0, 2024-02-26 19:09:32.978
34.0, 187500.0, 187500.0, 187500.0, 187500.0, -3000.6099344026966, 187500.0, 187500.0, -181974.201735759, 0.064, 0.006, 0.986, 192.0, 0.0, 0.0, 0.0, 0.0, 0.0, 0.0, 0.0, 0.0, 0.0, 1.708992572982452E9, 0.0, 2024-02-26 19:09:32.982
35.0, 187500.0, 187500.0, 187500.0, 187500.0, -2961.2932159058114, 187500.0, 187500.0, -182000.93442212755, 0.064, 0.006, 0.986, 192.0, 0.0, 0.0, 0.0, 0.0, 0.0, 0.0, 0.0, 0.0, 0.0, 1.708992572986452E9, 0.0, 2024-02-26 19:09:32.986
36.0, 187500.0, 187500.0, 187500.0, 187500.0, -2890.3040755157563, 187500.0, 187500.0, -182122.59496719777, 0.064, 0.006, 0.986, 192.0, 0.0, 0.0, 0.0, 0.0, 0.0, 0.0, 0.0, 0.0, 0.0, 1.708992572989444E9, 0.0, 2024-02-26 19:09:32.989
37.0, 187500.0, 187500.0, 187500.0, 187500.0, -2981.856820804694, 187500.0, 187500.0, -182045.45909708252, 0.068, 0.0, 0.982, 192.0, 2.0, 32.0, 0.0, 0.0, 30.0, 176.0, 0.0, 0.0, 0.0, 1.708992572993456E9, 0.0, 2024-02-26 19:09:32.993
38.0, 187500.0, 187500.0, 187500.0, 187500.0, -2965.2271229299454, 187500.0, 187500.0, -181973.01709330286, 0.068, 0.0, 0.982, 192.0, 0.0, 0.0, 0.0, 0.0, 0.0, 0.0, 0.0, 0.0, 0.0, 1.708992572997465E9, 0.0, 2024-02-26 19:09:32.997
39.0, 187500.0, 187500.0, 187500.0, 187500.0, -2895.981418607404, 187500.0, 187500.0, -181984.64000041963, 0.068, 0.0, 0.982, 192.0, 0.0, 0.0, 0.0, 0.0, 0.0, 0.0, 0.0, 0.0, 0.0, 1.70899257300145E9, 0.0, 2024-02-26 19:09:33.001
40.0, 187500.0, 187500.0, 187500.0, 187500.0, -2825.953403228927, 187500.0, 187500.0, -182123.06435383135, 0.068, 0.0, 0.982, 192.0, 0.0, 0.0, 0.0, 0.0, 0.0, 0.0, 0.0, 0.0, 0.0, 1.708992573006448E9, 0.0, 2024-02-26 19:09:33.006
41.0, 187500.0, 187500.0, 187500.0, 187500.0, -2956.375832125644, 187500.0, 187500.0, -182071.7223968175, 0.068, 0.0, 0.982, 192.0, 0.0, 0.0, 0.0, 0.0, 0.0, 0.0, 0.0, 0.0, 0.0, 1.70899257301046E9, 0.0, 2024-02-26 19:09:33.010
42.0, 187500.0, 187500.0, 187500.0, 187500.0, -3030.5836237172634, 187500.0, 187500.0, -181982.91891609656, 0.068, 0.0, 0.982, 192.0, 0.0, 0.0, 0.0, 0.0, 0.0, 0.0, 0.0, 0.0, 0.0, 1.708992573014463E9, 0.0, 2024-02-26 19:09:33.014
43.0, 187500.0, 187500.0, 187500.0, 187500.0, -2988.137660996635, 187500.0, 187500.0, -181985.3552562422, 0.068, 0.0, 0.982, 192.0, 0.0, 0.0, 0.0, 0.0, 0.0, 0.0, 0.0, 0.0, 0.0, 1.708992573017456E9, 0.0, 2024-02-26 19:09:33.017
44.0, 187500.0, 187500.0, 187500.0, 187500.0, -2876.9153805870274, 187500.0, 187500.0, -182111.79907462586, 0.068, 0.0, 0.982, 192.0, 0.0, 0.0, 0.0, 0.0, 0.0, 0.0, 0.0, 0.0, 0.0, 1.708992573021452E9, 0.0, 2024-02-26 19:09:33.021
45.0, 187500.0, 187500.0, 187500.0, 187500.0, -2939.276747617334, 187500.0, 187500.0, -182106.2334902565, 0.068, 0.0, 0.982, 192.0, 0.0, 0.0, 0.0, 0.0, 0.0, 0.0, 0.0, 0.0, 0.0, 1.70899257302546E9, 0.0, 2024-02-26 19:09:33.025
46.0, 187500.0, 187500.0, 187500.0, 187500.0, -3030.047181850336, 187500.0, 187500.0, -182001.6049744612, 0.068, 0.0, 0.982, 192.0, 0.0, 0.0, 0.0, 0.0, 0.0, 0.0, 0.0, 0.0, 0.0, 1.708992573029451E9, 0.0, 2024-02-26 19:09:33.029
47.0, 187500.0, 187500.0, 187500.0, 187500.0, -2978.1017277362025, 187500.0, 187500.0, -182018.0558583803, 0.064, -0.006, 0.978, 192.0, 2.0, 0.0, 255.0, 208.0, 30.0, 144.0, 0.0, 0.0, 0.0, 1.708992573034449E9, 0.0, 2024-02-26 19:09:33.034
48.0, 187500.0, 187500.0, 187500.0, 187500.0, -2889.2088400374464, 187500.0, 187500.0, -182120.58331019682, 0.064, -0.006, 0.978, 192.0, 0.0, 0.0, 0.0, 0.0, 0.0, 0.0, 0.0, 0.0, 0.0, 1.708992573038456E9, 0.0, 2024-02-26 19:09:33.038
49.0, 187500.0, 187500.0, 187500.0, 187500.0, -2908.7219129469295, 187500.0, 187500.0, -182149.21589484406, 0.064, -0.006, 0.978, 192.0, 0.0, 0.0, 0.0, 0.0, 0.0, 0.0, 0.0, 0.0, 0.0, 1.708992573041477E9, 0.0, 2024-02-26 19:09:33.041
50.0, 187500.0, 187500.0, 187500.0, 187500.0, -3001.056969291803, 187500.0, 187500.0, -182006.4105995191, 0.064, -0.006, 0.978, 192.0, 0.0, 0.0, 0.0, 0.0, 0.0, 0.0, 0.0, 0.0, 0.0, 1.708992573045482E9, 0.0, 2024-02-26 19:09:33.045
51.0, 187500.0, 187500.0, 187500.0, 187500.0, -2955.504114091887, 187500.0, 187500.0, -181978.82854686124, 0.064, -0.006, 0.978, 192.0, 0.0, 0.0, 0.0, 0.0, 0.0, 0.0, 0.0, 0.0, 0.0, 1.708992573049469E9, 0.0, 2024-02-26 19:09:33.049
52.0, 187500.0, 187500.0, 187500.0, 187500.0, -2864.1748862475024, 187500.0, 187500.0, -182053.66218729762, 0.064, -0.006, 0.978, 192.0, 0.0, 0.0, 0.0, 0.0, 0.0, 0.0, 0.0, 0.0, 0.0, 1.708992573053467E9, 0.0, 2024-02-26 19:09:33.053
53.0, 187500.0, 187500.0, 187500.0, 187500.0, -2847.321670928201, 187500.0, 187500.0, -182102.9254320771, 0.064, -0.006, 0.978, 192.0, 0.0, 0.0, 0.0, 0.0, 0.0, 0.0, 0.0, 0.0, 0.0, 1.708992573057467E9, 0.0, 2024-02-26 19:09:33.057
54.0, 187500.0, 187500.0, 187500.0, 187500.0, -2932.124189391636, 187500.0, 187500.0, -182008.37755303117, 0.064, -0.006, 0.978, 192.0, 0.0, 0.0, 0.0, 0.0, 0.0, 0.0, 0.0, 0.0, 0.0, 1.708992573061494E9, 0.0, 2024-02-26 19:09:33.061
55.0, 187500.0, 187500.0, 187500.0, 187500.0, -2913.3040205602674, 187500.0, 187500.0, -181971.07249153525, 0.064, -0.006, 0.978, 192.0, 0.0, 0.0, 0.0, 0.0, 0.0, 0.0, 0.0, 0.0, 0.0, 1.708992573066481E9, 0.0, 2024-02-26 19:09:33.066
56.0, 187500.0, 187500.0, 187500.0, 187500.0, -2859.436316422977, 187500.0, 187500.0, -182027.60005326272, 0.064, -0.006, 0.978, 192.0, 0.0, 0.0, 0.0, 0.0, 0.0, 0.0, 0.0, 0.0, 0.0, 1.708992573069481E9, 0.0, 2024-02-26 19:09:33.069
57.0, 187500.0, 187500.0, 187500.0, 187500.0, -2826.6910107959525, 187500.0, 187500.0, -182135.78249642643, 0.06, -0.002, 0.982, 192.0, 1.0, 224.0, 255.0, 240.0, 30.0, 176.0, 0.0, 0.0, 0.0, 1.708992573073477E9, 0.0, 2024-02-26 19:09:33.073
58.0, 187500.0, 187500.0, 187500.0, 187500.0, -2963.3272246512443, 187500.0, 187500.0, -182036.4289923226, 0.06, -0.002, 0.982, 192.0, 0.0, 0.0, 0.0, 0.0, 0.0, 0.0, 0.0, 0.0, 0.0, 1.70899257307752E9, 0.0, 2024-02-26 19:09:33.077
59.0, 187500.0, 187500.0, 187500.0, 187500.0, -2972.245570688912, 187500.0, 187500.0, -181979.27558175035, 0.06, -0.002, 0.982, 192.0, 0.0, 0.0, 0.0, 0.0, 0.0, 0.0, 0.0, 0.0, 0.0, 1.708992573081517E9, 0.0, 2024-02-26 19:09:33.081
60.0, 187500.0, 187500.0, 187500.0, 187500.0, -2921.1718346085354, 187500.0, 187500.0, -182009.4057332761, 0.06, -0.002, 0.982, 192.0, 0.0, 0.0, 0.0, 0.0, 0.0, 0.0, 0.0, 0.0, 0.0, 1.708992573085519E9, 0.0, 2024-02-26 19:09:33.085
61.0, 187500.0, 187500.0, 187500.0, 187500.0, -2852.0825924971814, 187500.0, 187500.0, -182137.52593249394, 0.06, -0.002, 0.982, 192.0, 0.0, 0.0, 0.0, 0.0, 0.0, 0.0, 0.0, 0.0, 0.0, 1.70899257308951E9, 0.0, 2024-02-26 19:09:33.089
62.0, 187500.0, 187500.0, 187500.0, 187500.0, -2972.692605578018, 187500.0, 187500.0, -182059.20541992254, 0.06, -0.002, 0.982, 192.0, 0.0, 0.0, 0.0, 0.0, 0.0, 0.0, 0.0, 0.0, 0.0, 1.708992573094537E9, 0.0, 2024-02-26 19:09:33.094
63.0, 187500.0, 187500.0, 187500.0, 187500.0, -3001.414597203088, 187500.0, 187500.0, -181988.10452081022, 0.06, -0.002, 0.982, 192.0, 0.0, 0.0, 0.0, 0.0, 0.0, 0.0, 0.0, 0.0, 0.0, 1.708992573097521E9, 0.0, 2024-02-26 19:09:33.097
64.0, 187500.0, 187500.0, 187500.0, 187500.0, -2955.0123757138704, 187500.0, 187500.0, -181993.96067785748, 0.06, -0.002, 0.982, 192.0, 0.0, 0.0, 0.0, 0.0, 0.0, 0.0, 0.0, 0.0, 0.0, 1.70899257310252E9, 0.0, 2024-02-26 19:09:33.102
65.0, 187500.0, 187500.0, 187500.0, 187500.0, -2859.212798978424, 187500.0, 187500.0, -182127.69116493358, 0.06, -0.002, 0.982, 192.0, 0.0, 0.0, 0.0, 0.0, 0.0, 0.0, 0.0, 0.0, 0.0, 1.708992573105514E9, 0.0, 2024-02-26 19:09:33.105
66.0, 187500.0, 187500.0, 187500.0, 187500.0, -2951.637262301119, 187500.0, 187500.0, -182088.5756121368, 0.06, -0.002, 0.982, 192.0, 0.0, 0.0, 0.0, 0.0, 0.0, 0.0, 0.0, 0.0, 0.0, 1.708992573109524E9, 0.0, 2024-02-26 19:09:33.109
67.0, 187500.0, 187500.0, 187500.0, 187500.0, -3011.7187513969843, 187500.0, 187500.0, -181997.89458488164, 0.058, 0.0, 0.984, 192.0, 1.0, 208.0, 0.0, 0.0, 30.0, 192.0, 0.0, 0.0, 0.0, 1.70899257311352E9, 0.0, 2024-02-26 19:09:33.113
68.0, 187500.0, 187500.0, 187500.0, 187500.0, -2941.757791251873, 187500.0, 187500.0, -182041.03345168036, 0.058, 0.0, 0.984, 192.0, 0.0, 0.0, 0.0, 0.0, 0.0, 0.0, 0.0, 0.0, 0.0, 1.708992573117519E9, 0.0, 2024-02-26 19:09:33.117
69.0, 187500.0, 187500.0, 187500.0, 187500.0, -2837.285737667768, 187500.0, 187500.0, -182177.82612774684, 0.058, 0.0, 0.984, 192.0, 0.0, 0.0, 0.0, 0.0, 0.0, 0.0, 0.0, 0.0, 0.0, 1.708992573122538E9, 0.0, 2024-02-26 19:09:33.122
70.0, 187500.0, 187500.0, 187500.0, 187500.0, -2914.175738594024, 187500.0, 187500.0, -182176.28385737943, 0.058, 0.0, 0.984, 192.0, 0.0, 0.0, 0.0, 0.0, 0.0, 0.0, 0.0, 0.0, 0.0, 1.708992573125538E9, 0.0, 2024-02-26 19:09:33.125
71.0, 187500.0, 187500.0, 187500.0, 187500.0, -3020.5476904568304, 187500.0, 187500.0, -182007.0588001083, 0.058, 0.0, 0.984, 192.0, 0.0, 0.0, 0.0, 0.0, 0.0, 0.0, 0.0, 0.0, 0.0, 1.70899257312957E9, 0.0, 2024-02-26 19:09:33.129
72.0, 187500.0, 187500.0, 187500.0, 187500.0, -2998.3300564682554, 187500.0, 187500.0, -181976.41455846006, 0.058, 0.0, 0.984, 192.0, 0.0, 0.0, 0.0, 0.0, 0.0, 0.0, 0.0, 0.0, 0.0, 1.708992573133565E9, 0.0, 2024-02-26 19:09:33.133
73.0, 187500.0, 187500.0, 187500.0, 187500.0, -2917.662610729052, 187500.0, 187500.0, -182086.1839754801, 0.058, 0.0, 0.984, 192.0, 0.0, 0.0, 0.0, 0.0, 0.0, 0.0, 0.0, 0.0, 0.0, 1.708992573137578E9, 0.0, 2024-02-26 19:09:33.137
74.0, 187500.0, 187500.0, 187500.0, 187500.0, -2943.8812069751275, 187500.0, 187500.0, -182134.84372315928, 0.058, 0.0, 0.984, 192.0, 0.0, 0.0, 0.0, 0.0, 0.0, 0.0, 0.0, 0.0, 0.0, 1.708992573141574E9, 0.0, 2024-02-26 19:09:33.141
75.0, 187500.0, 187500.0, 187500.0, 187500.0, -3049.403792548632, 187500.0, 187500.0, -182008.93634664256, 0.058, 0.0, 0.984, 192.0, 0.0, 0.0, 0.0, 0.0, 0.0, 0.0, 0.0, 0.0, 0.0, 1.708992573145577E9, 0.0, 2024-02-26 19:09:33.145
76.0, 187500.0, 187500.0, 187500.0, 187500.0, -3031.723562684484, 187500.0, 187500.0, -181964.2552094764, 0.058, 0.0, 0.984, 192.0, 0.0, 0.0, 0.0, 0.0, 0.0, 0.0, 0.0, 0.0, 0.0, 1.708992573150554E9, 0.0, 2024-02-26 19:09:33.150
77.0, 187500.0, 187500.0, 187500.0, 187500.0, -2971.440907888521, 187500.0, 187500.0, -182035.89255045564, 0.064, -0.002, 0.984, 192.0, 2.0, 0.0, 255.0, 240.0, 30.0, 192.0, 0.0, 0.0, 0.0, 1.708992573153581E9, 0.0, 2024-02-26 19:09:33.153
78.0, 187500.0, 187500.0, 187500.0, 187500.0, -2933.979384181426, 187500.0, 187500.0, -182149.52881926642, 0.064, -0.002, 0.984, 192.0, 0.0, 0.0, 0.0, 0.0, 0.0, 0.0, 0.0, 0.0, 0.0, 1.708992573157582E9, 0.0, 2024-02-26 19:09:33.157
79.0, 187500.0, 187500.0, 187500.0, 187500.0, -3054.9917286624586, 187500.0, 187500.0, -182032.3162713428, 0.064, -0.002, 0.984, 192.0, 0.0, 0.0, 0.0, 0.0, 0.0, 0.0, 0.0, 0.0, 0.0, 1.708992573161587E9, 0.0, 2024-02-26 19:09:33.161
80.0, 187500.0, 187500.0, 187500.0, 187500.0, -3039.5466732438417, 187500.0, 187500.0, -181968.97142755645, 0.064, -0.002, 0.984, 192.0, 0.0, 0.0, 0.0, 0.0, 0.0, 0.0, 0.0, 0.0, 0.0, 1.708992573165569E9, 0.0, 2024-02-26 19:09:33.165
81.0, 187500.0, 187500.0, 187500.0, 187500.0, -2968.7363468094286, 187500.0, 187500.0, -182027.28712884037, 0.064, -0.002, 0.984, 192.0, 0.0, 0.0, 0.0, 0.0, 0.0, 0.0, 0.0, 0.0, 0.0, 1.7089925731696E9, 0.0, 2024-02-26 19:09:33.169
82.0, 187500.0, 187500.0, 187500.0, 187500.0, -2918.735494462907, 187500.0, 187500.0, -182130.44042950158, 0.064, -0.002, 0.984, 192.0, 0.0, 0.0, 0.0, 0.0, 0.0, 0.0, 0.0, 0.0, 0.0, 1.708992573173593E9, 0.0, 2024-02-26 19:09:33.173
83.0, 187500.0, 187500.0, 187500.0, 187500.0, -3040.4183912775984, 187500.0, 187500.0, -182035.89255045564, 0.064, -0.002, 0.984, 192.0, 0.0, 0.0, 0.0, 0.0, 0.0, 0.0, 0.0, 0.0, 0.0, 1.708992573177627E9, 0.0, 2024-02-26 19:09:33.177
84.0, 187500.0, 187500.0, 187500.0, 187500.0, -3044.17348434609, 187500.0, 187500.0, -181972.9500380695, 0.064, -0.002, 0.984, 192.0, 0.0, 0.0, 0.0, 0.0, 0.0, 0.0, 0.0, 0.0, 0.0, 1.708992573180597E9, 0.0, 2024-02-26 19:09:33.180
85.0, 187500.0, 187500.0, 187500.0, 187500.0, -2998.464166934987, 187500.0, 187500.0, -182002.14141632814, 0.064, -0.002, 0.984, 192.0, 0.0, 0.0, 0.0, 0.0, 0.0, 0.0, 0.0, 0.0, 0.0, 1.708992573184593E9, 0.0, 2024-02-26 19:09:33.184
86.0, 187500.0, 187500.0, 187500.0, 187500.0, -2931.2748231023343, 187500.0, 187500.0, -182126.35006026627, 0.064, -0.002, 0.984, 192.0, 0.0, 0.0, 0.0, 0.0, 0.0, 0.0, 0.0, 0.0, 0.0, 1.708992573189615E9, 0.0, 2024-02-26 19:09:33.189
87.0, 187500.0, 187500.0, 187500.0, 187500.0, -3054.4552867955313, 187500.0, 187500.0, -182057.41728036612, 0.066, 0.002, 0.978, 192.0, 2.0, 16.0, 0.0, 16.0, 30.0, 144.0, 0.0, 0.0, 0.0, 1.708992573193626E9, 0.0, 2024-02-26 19:09:33.193
88.0, 187500.0, 187500.0, 187500.0, 187500.0, -3083.780775520894, 187500.0, 187500.0, -181995.21237554698, 0.066, 0.002, 0.978, 192.0, 0.0, 0.0, 0.0, 0.0, 0.0, 0.0, 0.0, 0.0, 0.0, 1.708992573197614E9, 0.0, 2024-02-26 19:09:33.197
89.0, 187500.0, 187500.0, 187500.0, 187500.0, -3033.891681896649, 187500.0, 187500.0, -182018.6146519917, 0.066, 0.002, 0.978, 192.0, 0.0, 0.0, 0.0, 0.0, 0.0, 0.0, 0.0, 0.0, 0.0, 1.708992573201635E9, 0.0, 2024-02-26 19:09:33.201
90.0, 187500.0, 187500.0, 187500.0, 187500.0, -2945.53523606482, 187500.0, 187500.0, -182155.20616235808, 0.066, 0.002, 0.978, 192.0, 0.0, 0.0, 0.0, 0.0, 0.0, 0.0, 0.0, 0.0, 0.0, 1.708992573205631E9, 0.0, 2024-02-26 19:09:33.205
91.0, 187500.0, 187500.0, 187500.0, 187500.0, -3021.1958910460344, 187500.0, 187500.0, -182103.86420534423, 0.066, 0.002, 0.978, 192.0, 0.0, 0.0, 0.0, 0.0, 0.0, 0.0, 0.0, 0.0, 0.0, 1.708992573208646E9, 0.0, 2024-02-26 19:09:33.208
92.0, 187500.0, 187500.0, 187500.0, 187500.0, -3076.7399760174726, 187500.0, 187500.0, -181983.0530265633, 0.066, 0.002, 0.978, 192.0, 0.0, 0.0, 0.0, 0.0, 0.0, 0.0, 0.0, 0.0, 0.0, 1.70899257321264E9, 0.0, 2024-02-26 19:09:33.212
93.0, 187500.0, 187500.0, 187500.0, 187500.0, -3040.9995366334365, 187500.0, 187500.0, -181979.2532300059, 0.066, 0.002, 0.978, 192.0, 0.0, 0.0, 0.0, 0.0, 0.0, 0.0, 0.0, 0.0, 0.0, 1.708992573217635E9, 0.0, 2024-02-26 19:09:33.217
94.0, 187500.0, 187500.0, 187500.0, 187500.0, -2954.6770995470406, 187500.0, 187500.0, -182096.84575758528, 0.066, 0.002, 0.978, 192.0, 0.0, 0.0, 0.0, 0.0, 0.0, 0.0, 0.0, 0.0, 0.0, 1.708992573221656E9, 0.0, 2024-02-26 19:09:33.221
95.0, 187500.0, 187500.0, 187500.0, 187500.0, -3013.9986293314255, 187500.0, 187500.0, -182107.35107747925, 0.066, 0.002, 0.978, 192.0, 0.0, 0.0, 0.0, 0.0, 0.0, 0.0, 0.0, 0.0, 0.0, 1.708992573225664E9, 0.0, 2024-02-26 19:09:33.225
96.0, 187500.0, 187500.0, 187500.0, 187500.0, -3095.8060140378493, 187500.0, 187500.0, -182000.88971863865, 0.066, 0.002, 0.978, 192.0, 0.0, 0.0, 0.0, 0.0, 0.0, 0.0, 0.0, 0.0, 0.0, 1.708992573229657E9, 0.0, 2024-02-26 19:09:33.229
97.0, 187500.0, 187500.0, 187500.0, 187500.0, -3057.8080484638276, 187500.0, 187500.0, -181962.8470495757, 0.068, 0.004, 0.976, 192.0, 2.0, 32.0, 0.0, 32.0, 30.0, 128.0, 0.0, 0.0, 0.0, 1.70899257323365E9, 0.0, 2024-02-26 19:09:33.233
98.0, 187500.0, 187500.0, 187500.0, 187500.0, -2957.5604745817755, 187500.0, 187500.0, -182062.0217397239, 0.068, 0.004, 0.976, 192.0, 0.0, 0.0, 0.0, 0.0, 0.0, 0.0, 0.0, 0.0, 0.0, 1.708992573236683E9, 0.0, 2024-02-26 19:09:33.236
99.0, 187500.0, 187500.0, 187500.0, 187500.0, -2951.1678756675574, 187500.0, 187500.0, -182127.04296434438, 0.068, 0.004, 0.976, 192.0, 0.0, 0.0, 0.0, 0.0, 0.0, 0.0, 0.0, 0.0, 0.0, 1.708992573240709E9, 0.0, 2024-02-26 19:09:33.240
100.0, 187500.0, 187500.0, 187500.0, 187500.0, -3054.8352664512718, 187500.0, 187500.0, -182014.32311705628, 0.068, 0.004, 0.976, 192.0, 0.0, 0.0, 0.0, 0.0, 0.0, 0.0, 0.0, 0.0, 0.0, 1.708992573245695E9, 0.0, 2024-02-26 19:09:33.245
101.0, 187500.0, 187500.0, 187500.0, 187500.0, -3028.795484160839, 187500.0, 187500.0, -181974.8052328593, 0.068, 0.004, 0.976, 192.0, 0.0, 0.0, 0.0, 0.0, 0.0, 0.0, 0.0, 0.0, 0.0, 1.708992573249711E9, 0.0, 2024-02-26 19:09:33.249
102.0, 187500.0, 187500.0, 187500.0, 187500.0, -2951.301986134289, 187500.0, 187500.0, -182052.25402739694, 0.068, 0.004, 0.976, 192.0, 0.0, 0.0, 0.0, 0.0, 0.0, 0.0, 0.0, 0.0, 0.0, 1.708992573253708E9, 0.0, 2024-02-26 19:09:33.253
103.0, 187500.0, 187500.0, 187500.0, 187500.0, -2929.2631661013565, 187500.0, 187500.0, -182141.81746742936, 0.068, 0.004, 0.976, 192.0, 0.0, 0.0, 0.0, 0.0, 0.0, 0.0, 0.0, 0.0, 0.0, 1.70899257325771E9, 0.0, 2024-02-26 19:09:33.257
104.0, 187500.0, 187500.0, 187500.0, 187500.0, -3064.5806270337853, 187500.0, 187500.0, -182027.6671084961, 0.068, 0.004, 0.976, 192.0, 0.0, 0.0, 0.0, 0.0, 0.0, 0.0, 0.0, 0.0, 0.0, 1.708992573261709E9, 0.0, 2024-02-26 19:09:33.261
105.0, 187500.0, 187500.0, 187500.0, 187500.0, -3057.070440896802, 187500.0, 187500.0, -181971.98891305792, 0.068, 0.004, 0.976, 192.0, 0.0, 0.0, 0.0, 0.0, 0.0, 0.0, 0.0, 0.0, 0.0, 1.708992573264711E9, 0.0, 2024-02-26 19:09:33.264
106.0, 187500.0, 187500.0, 187500.0, 187500.0, -2985.790727828828, 187500.0, 187500.0, -182013.58550948926, 0.068, 0.002, 0.978, 192.0, 2.0, 32.0, 0.0, 16.0, 30.0, 144.0, 0.0, 0.0, 0.0, 1.708992573268706E9, 0.0, 2024-02-26 19:09:33.268
107.0, 187500.0, 187500.0, 187500.0, 187500.0, -2902.8434041551836, 187500.0, 187500.0, -182129.72517367903, 0.068, 0.002, 0.978, 192.0, 0.0, 0.0, 0.0, 0.0, 0.0, 0.0, 0.0, 0.0, 0.0, 1.708992573273706E9, 0.0, 2024-02-26 19:09:33.273
108.0, 187500.0, 187500.0, 187500.0, 187500.0, -2992.4738994209647, 187500.0, 187500.0, -182040.74287900244, 0.068, 0.002, 0.978, 192.0, 0.0, 0.0, 0.0, 0.0, 0.0, 0.0, 0.0, 0.0, 0.0, 1.708992573277703E9, 0.0, 2024-02-26 19:09:33.277
109.0, 187500.0, 187500.0, 187500.0, 187500.0, -2998.754739612906, 187500.0, 187500.0, -181988.23863127694, 0.068, 0.002, 0.978, 192.0, 0.0, 0.0, 0.0, 0.0, 0.0, 0.0, 0.0, 0.0, 0.0, 1.708992573281703E9, 0.0, 2024-02-26 19:09:33.281
110.0, 187500.0, 187500.0, 187500.0, 187500.0, -2952.911311735071, 187500.0, 187500.0, -182017.18414034657, 0.068, 0.002, 0.978, 192.0, 0.0, 0.0, 0.0, 0.0, 0.0, 0.0, 0.0, 0.0, 0.0, 1.708992573285748E9, 0.0, 2024-02-26 19:09:33.285
111.0, 187500.0, 187500.0, 187500.0, 187500.0, -2895.66849418503, 187500.0, 187500.0, -182128.54053122288, 0.068, 0.002, 0.978, 192.0, 0.0, 0.0, 0.0, 0.0, 0.0, 0.0, 0.0, 0.0, 0.0, 1.708992573290747E9, 0.0, 2024-02-26 19:09:33.290
112.0, 187500.0, 187500.0, 187500.0, 187500.0, -3007.606030417208, 187500.0, 187500.0, -182051.471716341, 0.068, 0.002, 0.978, 192.0, 0.0, 0.0, 0.0, 0.0, 0.0, 0.0, 0.0, 0.0, 0.0, 1.708992573293745E9, 0.0, 2024-02-26 19:09:33.293
113.0, 187500.0, 187500.0, 187500.0, 187500.0, -2991.4233674315656, 187500.0, 187500.0, -181980.32611373975, 0.068, 0.002, 0.978, 192.0, 0.0, 0.0, 0.0, 0.0, 0.0, 0.0, 0.0, 0.0, 0.0, 1.708992573296745E9, 0.0, 2024-02-26 19:09:33.296
114.0, 187500.0, 187500.0, 187500.0, 187500.0, -2928.7043724899736, 187500.0, 187500.0, -181990.25028827792, 0.068, 0.002, 0.978, 192.0, 0.0, 0.0, 0.0, 0.0, 0.0, 0.0, 0.0, 0.0, 0.0, 1.708992573301764E9, 0.0, 2024-02-26 19:09:33.301
115.0, 187500.0, 187500.0, 187500.0, 187500.0, -2839.9455952579497, 187500.0, 187500.0, -182127.95938586706, 0.068, 0.002, 0.978, 192.0, 0.0, 0.0, 0.0, 0.0, 0.0, 0.0, 0.0, 0.0, 0.0, 1.708992573305747E9, 0.0, 2024-02-26 19:09:33.305
116.0, 187500.0, 187500.0, 187500.0, 187500.0, -2931.2971748467894, 187500.0, 187500.0, -182103.5959844108, 0.064, 0.0, 0.978, 192.0, 2.0, 0.0, 0.0, 0.0, 30.0, 144.0, 0.0, 0.0, 0.0, 1.708992573309754E9, 0.0, 2024-02-26 19:09:33.309
117.0, 187500.0, 187500.0, 187500.0, 187500.0, -3019.5195102118864, 187500.0, 187500.0, -181993.84891913523, 0.064, 0.0, 0.978, 192.0, 0.0, 0.0, 0.0, 0.0, 0.0, 0.0, 0.0, 0.0, 0.0, 1.708992573312743E9, 0.0, 2024-02-26 19:09:33.312
118.0, 187500.0, 187500.0, 187500.0, 187500.0, -3000.2970099803224, 187500.0, 187500.0, -181983.52241319686, 0.064, 0.0, 0.978, 192.0, 0.0, 0.0, 0.0, 0.0, 0.0, 0.0, 0.0, 0.0, 0.0, 1.708992573316749E9, 0.0, 2024-02-26 19:09:33.316
119.0, 187500.0, 187500.0, 187500.0, 187500.0, -2916.6567822285633, 187500.0, 187500.0, -182102.9254320771, 0.064, 0.0, 0.978, 192.0, 0.0, 0.0, 0.0, 0.0, 0.0, 0.0, 0.0, 0.0, 0.0, 1.708992573320747E9, 0.0, 2024-02-26 19:09:33.320
120.0, 187500.0, 187500.0, 187500.0, 187500.0, -2957.7169367929623, 187500.0, 187500.0, -182115.84474037227, 0.064, 0.0, 0.978, 192.0, 0.0, 0.0, 0.0, 0.0, 0.0, 0.0, 0.0, 0.0, 0.0, 1.708992573324743E9, 0.0, 2024-02-26 19:09:33.324
121.0, 187500.0, 187500.0, 187500.0, 187500.0, -3035.970394130992, 187500.0, 187500.0, -182009.67395420957, 0.064, 0.0, 0.978, 192.0, 0.0, 0.0, 0.0, 0.0, 0.0, 0.0, 0.0, 0.0, 0.0, 1.708992573329797E9, 0.0, 2024-02-26 19:09:33.329
122.0, 187500.0, 187500.0, 187500.0, 187500.0, -3004.700303638018, 187500.0, 187500.0, -181983.03067481885, 0.064, 0.0, 0.978, 192.0, 0.0, 0.0, 0.0, 0.0, 0.0, 0.0, 0.0, 0.0, 0.0, 1.708992573333797E9, 0.0, 2024-02-26 19:09:33.333
123.0, 187500.0, 187500.0, 187500.0, 187500.0, -2894.595610451175, 187500.0, 187500.0, -182083.30060044536, 0.064, 0.0, 0.978, 192.0, 0.0, 0.0, 0.0, 0.0, 0.0, 0.0, 0.0, 0.0, 0.0, 1.708992573337837E9, 0.0, 2024-02-26 19:09:33.337
124.0, 187500.0, 187500.0, 187500.0, 187500.0, -2888.8065086372508, 187500.0, 187500.0, -182150.4452407891, 0.064, 0.0, 0.978, 192.0, 0.0, 0.0, 0.0, 0.0, 0.0, 0.0, 0.0, 0.0, 0.0, 1.708992573340796E9, 0.0, 2024-02-26 19:09:33.340
125.0, 187500.0, 187500.0, 187500.0, 187500.0, -3005.661428649596, 187500.0, 187500.0, -182019.0169833919, 0.064, 0.0, 0.978, 192.0, 0.0, 0.0, 0.0, 0.0, 0.0, 0.0, 0.0, 0.0, 0.0, 1.708992573344796E9, 0.0, 2024-02-26 19:09:33.344
126.0, 187500.0, 187500.0, 187500.0, 187500.0, -2995.4243296890654, 187500.0, 187500.0, -181976.43691020453, 0.06, 0.0, 0.978, 192.0, 1.0, 224.0, 0.0, 0.0, 30.0, 144.0, 0.0, 0.0, 0.0, 1.708992573348792E9, 0.0, 2024-02-26 19:09:33.348
127.0, 187500.0, 187500.0, 187500.0, 187500.0, -2920.031895641315, 187500.0, 187500.0, -182050.97997796297, 0.06, 0.0, 0.978, 192.0, 0.0, 0.0, 0.0, 0.0, 0.0, 0.0, 0.0, 0.0, 0.0, 1.70899257335279E9, 0.0, 2024-02-26 19:09:33.352
128.0, 187500.0, 187500.0, 187500.0, 187500.0, -2879.66464515503, 187500.0, 187500.0, -182156.27904609192, 0.06, 0.0, 0.978, 192.0, 0.0, 0.0, 0.0, 0.0, 0.0, 0.0, 0.0, 0.0, 0.0, 1.708992573358792E9, 0.0, 2024-02-26 19:09:33.358
129.0, 187500.0, 187500.0, 187500.0, 187500.0, -2986.6177423736744, 187500.0, 187500.0, -182033.90324519912, 0.06, 0.0, 0.978, 192.0, 0.0, 0.0, 0.0, 0.0, 0.0, 0.0, 0.0, 0.0, 0.0, 1.708992573362783E9, 0.0, 2024-02-26 19:09:33.362
130.0, 187500.0, 187500.0, 187500.0, 187500.0, -2978.2581899473894, 187500.0, 187500.0, -181967.0938810222, 0.06, 0.0, 0.978, 192.0, 0.0, 0.0, 0.0, 0.0, 0.0, 0.0, 0.0, 0.0, 0.0, 1.708992573366796E9, 0.0, 2024-02-26 19:09:33.366
131.0, 187500.0, 187500.0, 187500.0, 187500.0, -2928.6820207455185, 187500.0, 187500.0, -182017.8546926802, 0.06, 0.0, 0.978, 192.0, 0.0, 0.0, 0.0, 0.0, 0.0, 0.0, 0.0, 0.0, 0.0, 1.708992573369842E9, 0.0, 2024-02-26 19:09:33.369
132.0, 187500.0, 187500.0, 187500.0, 187500.0, -2880.4022527220554, 187500.0, 187500.0, -182147.47245877655, 0.06, 0.0, 0.978, 192.0, 0.0, 0.0, 0.0, 0.0, 0.0, 0.0, 0.0, 0.0, 0.0, 1.708992573372795E9, 0.0, 2024-02-26 19:09:33.372
133.0, 187500.0, 187500.0, 187500.0, 187500.0, -3015.697361910029, 187500.0, 187500.0, -182056.83613501026, 0.06, 0.0, 0.978, 192.0, 0.0, 0.0, 0.0, 0.0, 0.0, 0.0, 0.0, 0.0, 0.0, 1.708992573376827E9, 0.0, 2024-02-26 19:09:33.376
134.0, 187500.0, 187500.0, 187500.0, 187500.0, -3040.0384116218584, 187500.0, 187500.0, -181990.09382606673, 0.06, 0.0, 0.978, 192.0, 0.0, 0.0, 0.0, 0.0, 0.0, 0.0, 0.0, 0.0, 0.0, 1.708992573380841E9, 0.0, 2024-02-26 19:09:33.380
135.0, 187500.0, 187500.0, 187500.0, 187500.0, -2980.8062888152945, 187500.0, 187500.0, -182019.19579734752, 0.06, 0.0, 0.978, 192.0, 0.0, 0.0, 0.0, 0.0, 0.0, 0.0, 0.0, 0.0, 0.0, 1.708992573385827E9, 0.0, 2024-02-26 19:09:33.385
136.0, 187500.0, 187500.0, 187500.0, 187500.0, -2887.778328392307, 187500.0, 187500.0, -182155.47438329156, 0.056, 0.0, 0.982, 192.0, 1.0, 192.0, 0.0, 0.0, 30.0, 176.0, 0.0, 0.0, 0.0, 1.708992573390839E9, 0.0, 2024-02-26 19:09:33.390
137.0, 187500.0, 187500.0, 187500.0, 187500.0, -2987.3553499406994, 187500.0, 187500.0, -182097.71747561902, 0.056, 0.0, 0.982, 192.0, 0.0, 0.0, 0.0, 0.0, 0.0, 0.0, 0.0, 0.0, 0.0, 1.708992573394828E9, 0.0, 2024-02-26 19:09:33.394
138.0, 187500.0, 187500.0, 187500.0, 187500.0, -3043.45822852352, 187500.0, 187500.0, -181980.9072590956, 0.056, 0.0, 0.982, 192.0, 0.0, 0.0, 0.0, 0.0, 0.0, 0.0, 0.0, 0.0, 0.0, 1.708992573397839E9, 0.0, 2024-02-26 19:09:33.397
139.0, 187500.0, 187500.0, 187500.0, 187500.0, -3019.117178811691, 187500.0, 187500.0, -181985.64582892013, 0.056, 0.0, 0.982, 192.0, 0.0, 0.0, 0.0, 0.0, 0.0, 0.0, 0.0, 0.0, 0.0, 1.708992573400835E9, 0.0, 2024-02-26 19:09:33.400
140.0, 187500.0, 187500.0, 187500.0, 187500.0, -2938.181512139024, 187500.0, 187500.0, -182112.60373742625, 0.056, 0.0, 0.982, 192.0, 0.0, 0.0, 0.0, 0.0, 0.0, 0.0, 0.0, 0.0, 0.0, 1.708992573404825E9, 0.0, 2024-02-26 19:09:33.404
141.0, 187500.0, 187500.0, 187500.0, 187500.0, -3021.7770364018725, 187500.0, 187500.0, -182081.4677574, 0.056, 0.0, 0.982, 192.0, 0.0, 0.0, 0.0, 0.0, 0.0, 0.0, 0.0, 0.0, 0.0, 1.708992573408849E9, 0.0, 2024-02-26 19:09:33.408
142.0, 187500.0, 187500.0, 187500.0, 187500.0, -3066.7487462459503, 187500.0, 187500.0, -181995.21237554698, 0.056, 0.0, 0.982, 192.0, 0.0, 0.0, 0.0, 0.0, 0.0, 0.0, 0.0, 0.0, 0.0, 1.708992573412845E9, 0.0, 2024-02-26 19:09:33.412
143.0, 187500.0, 187500.0, 187500.0, 187500.0, -3043.882911668171, 187500.0, 187500.0, -181997.44754999253, 0.056, 0.0, 0.982, 192.0, 0.0, 0.0, 0.0, 0.0, 0.0, 0.0, 0.0, 0.0, 0.0, 1.708992573417844E9, 0.0, 2024-02-26 19:09:33.417
144.0, 187500.0, 187500.0, 187500.0, 187500.0, -2938.4497330724876, 187500.0, 187500.0, -182110.1450455362, 0.056, 0.0, 0.982, 192.0, 0.0, 0.0, 0.0, 0.0, 0.0, 0.0, 0.0, 0.0, 0.0, 1.708992573423065E9, 0.0, 2024-02-26 19:09:33.423
145.0, 187500.0, 187500.0, 187500.0, 187500.0, -2950.63143380063, 187500.0, 187500.0, -182153.4403745461, 0.056, 0.0, 0.982, 192.0, 0.0, 0.0, 0.0, 0.0, 0.0, 0.0, 0.0, 0.0, 0.0, 1.708992573424879E9, 0.0, 2024-02-26 19:09:33.424
146.0, 187500.0, 187500.0, 187500.0, 187500.0, -3044.1958360905455, 187500.0, 187500.0, -182036.65250976713, 0.06, 0.006, 0.98, 192.0, 1.0, 224.0, 0.0, 48.0, 30.0, 160.0, 0.0, 0.0, 0.0, 1.708992573428875E9, 0.0, 2024-02-26 19:09:33.428
147.0, 187500.0, 187500.0, 187500.0, 187500.0, -3057.338661830266, 187500.0, 187500.0, -181993.98302960195, 0.06, 0.006, 0.98, 192.0, 0.0, 0.0, 0.0, 0.0, 0.0, 0.0, 0.0, 0.0, 0.0, 1.708992573432871E9, 0.0, 2024-02-26 19:09:33.432
148.0, 187500.0, 187500.0, 187500.0, 187500.0, -2963.0366519733257, 187500.0, 187500.0, -182102.232527999, 0.06, 0.006, 0.98, 192.0, 0.0, 0.0, 0.0, 0.0, 0.0, 0.0, 0.0, 0.0, 0.0, 1.708992573438873E9, 0.0, 2024-02-26 19:09:33.438
149.0, 187500.0, 187500.0, 187500.0, 187500.0, -2961.024994972348, 187500.0, 187500.0, -182187.61619181826, 0.06, 0.006, 0.98, 192.0, 0.0, 0.0, 0.0, 0.0, 0.0, 0.0, 0.0, 0.0, 0.0, 1.708992573441882E9, 0.0, 2024-02-26 19:09:33.441
150.0, 187500.0, 187500.0, 187500.0, 187500.0, -3081.0985661862574, 187500.0, 187500.0, -182036.33958534474, 0.06, 0.006, 0.98, 192.0, 0.0, 0.0, 0.0, 0.0, 0.0, 0.0, 0.0, 0.0, 0.0, 1.708992573445896E9, 0.0, 2024-02-26 19:09:33.445
151.0, 187500.0, 187500.0, 187500.0, 187500.0, -3072.3813858486874, 187500.0, 187500.0, -181972.0559682913, 0.06, 0.006, 0.98, 192.0, 0.0, 0.0, 0.0, 0.0, 0.0, 0.0, 0.0, 0.0, 0.0, 1.708992573448875E9, 0.0, 2024-02-26 19:09:33.448
152.0, 187500.0, 187500.0, 187500.0, 187500.0, -3008.4106932175987, 187500.0, 187500.0, -182039.29001561285, 0.06, 0.006, 0.98, 192.0, 0.0, 0.0, 0.0, 0.0, 0.0, 0.0, 0.0, 0.0, 0.0, 1.708992573452881E9, 0.0, 2024-02-26 19:09:33.452
153.0, 187500.0, 187500.0, 187500.0, 187500.0, -2971.9102945220825, 187500.0, 187500.0, -182138.50940924996, 0.06, 0.006, 0.98, 192.0, 0.0, 0.0, 0.0, 0.0, 0.0, 0.0, 0.0, 0.0, 0.0, 1.708992573456891E9, 0.0, 2024-02-26 19:09:33.456
154.0, 187500.0, 187500.0, 187500.0, 187500.0, -3095.582496593296, 187500.0, 187500.0, -182041.90516971413, 0.06, 0.006, 0.98, 192.0, 0.0, 0.0, 0.0, 0.0, 0.0, 0.0, 0.0, 0.0, 0.0, 1.708992573460924E9, 0.0, 2024-02-26 19:09:33.460
155.0, 187500.0, 187500.0, 187500.0, 187500.0, -3083.244333653967, 187500.0, 187500.0, -181986.22697427595, 0.06, 0.006, 0.98, 192.0, 0.0, 0.0, 0.0, 0.0, 0.0, 0.0, 0.0, 0.0, 0.0, 1.708992573464925E9, 0.0, 2024-02-26 19:09:33.464
156.0, 187500.0, 187500.0, 187500.0, 187500.0, -3009.6176874181856, 187500.0, 187500.0, -182018.27937582487, 0.062, 0.006, 0.98, 192.0, 1.0, 240.0, 0.0, 48.0, 30.0, 160.0, 0.0, 0.0, 0.0, 1.708992573468936E9, 0.0, 2024-02-26 19:09:33.468
157.0, 187500.0, 187500.0, 187500.0, 187500.0, -2925.6421834995967, 187500.0, 187500.0, -182147.07012737636, 0.062, 0.006, 0.98, 192.0, 0.0, 0.0, 0.0, 0.0, 0.0, 0.0, 0.0, 0.0, 0.0, 1.70899257347392E9, 0.0, 2024-02-26 19:09:33.473
158.0, 187500.0, 187500.0, 187500.0, 187500.0, -3035.277490052878, 187500.0, 187500.0, -182064.14515544716, 0.062, 0.006, 0.98, 192.0, 0.0, 0.0, 0.0, 0.0, 0.0, 0.0, 0.0, 0.0, 0.0, 1.708992573476926E9, 0.0, 2024-02-26 19:09:33.476
159.0, 187500.0, 187500.0, 187500.0, 187500.0, -3057.785696719372, 187500.0, 187500.0, -181995.63705869165, 0.062, 0.006, 0.98, 192.0, 0.0, 0.0, 0.0, 0.0, 0.0, 0.0, 0.0, 0.0, 0.0, 1.708992573480933E9, 0.0, 2024-02-26 19:09:33.480
160.0, 187500.0, 187500.0, 187500.0, 187500.0, -3014.2892020093445, 187500.0, 187500.0, -182020.38043980367, 0.062, 0.006, 0.98, 192.0, 0.0, 0.0, 0.0, 0.0, 0.0, 0.0, 0.0, 0.0, 0.0, 1.708992573484922E9, 0.0, 2024-02-26 19:09:33.484
161.0, 187500.0, 187500.0, 187500.0, 187500.0, -2932.638279514108, 187500.0, 187500.0, -182159.4976972935, 0.062, 0.006, 0.98, 192.0, 0.0, 0.0, 0.0, 0.0, 0.0, 0.0, 0.0, 0.0, 0.0, 1.70899257348893E9, 0.0, 2024-02-26 19:09:33.488
162.0, 187500.0, 187500.0, 187500.0, 187500.0, -3038.4290860210763, 187500.0, 187500.0, -182107.77576062392, 0.062, 0.006, 0.98, 192.0, 0.0, 0.0, 0.0, 0.0, 0.0, 0.0, 0.0, 0.0, 0.0, 1.708992573492918E9, 0.0, 2024-02-26 19:09:33.492
163.0, 187500.0, 187500.0, 187500.0, 187500.0, -3092.855583769749, 187500.0, 187500.0, -181989.91501211107, 0.062, 0.006, 0.98, 192.0, 0.0, 0.0, 0.0, 0.0, 0.0, 0.0, 0.0, 0.0, 0.0, 1.708992573498954E9, 0.0, 2024-02-26 19:09:33.498
164.0, 187500.0, 187500.0, 187500.0, 187500.0, -3051.817780949805, 187500.0, 187500.0, -181993.67010517957, 0.062, 0.006, 0.98, 192.0, 0.0, 0.0, 0.0, 0.0, 0.0, 0.0, 0.0, 0.0, 0.0, 1.708992573501967E9, 0.0, 2024-02-26 19:09:33.501
165.0, 187500.0, 187500.0, 187500.0, 187500.0, -2952.6430908016077, 187500.0, 187500.0, -182128.33936552278, 0.062, 0.006, 0.98, 192.0, 0.0, 0.0, 0.0, 0.0, 0.0, 0.0, 0.0, 0.0, 0.0, 1.708992573504961E9, 0.0, 2024-02-26 19:09:33.504
166.0, 187500.0, 187500.0, 187500.0, 187500.0, -3034.115199341202, 187500.0, 187500.0, -182105.07119954482, 0.064, 0.006, 0.98, 192.0, 2.0, 0.0, 0.0, 48.0, 30.0, 160.0, 0.0, 0.0, 0.0, 1.708992573508968E9, 0.0, 2024-02-26 19:09:33.508
167.0, 187500.0, 187500.0, 187500.0, 187500.0, -3096.9236012606148, 187500.0, 187500.0, -181993.62540169066, 0.064, 0.006, 0.98, 192.0, 0.0, 0.0, 0.0, 0.0, 0.0, 0.0, 0.0, 0.0, 0.0, 1.708992573512964E9, 0.0, 2024-02-26 19:09:33.512
168.0, 187500.0, 187500.0, 187500.0, 187500.0, -3043.7711529458948, 187500.0, 187500.0, -181977.59920091621, 0.064, 0.006, 0.98, 192.0, 0.0, 0.0, 0.0, 0.0, 0.0, 0.0, 0.0, 0.0, 0.0, 1.708992573516955E9, 0.0, 2024-02-26 19:09:33.516
169.0, 187500.0, 187500.0, 187500.0, 187500.0, -2942.8753784746386, 187500.0, 187500.0, -182089.76025459293, 0.064, 0.006, 0.98, 192.0, 0.0, 0.0, 0.0, 0.0, 0.0, 0.0, 0.0, 0.0, 0.0, 1.708992573520958E9, 0.0, 2024-02-26 19:09:33.520
170.0, 187500.0, 187500.0, 187500.0, 187500.0, -2958.5886548267194, 187500.0, 187500.0, -182127.71351667805, 0.064, 0.006, 0.98, 192.0, 0.0, 0.0, 0.0, 0.0, 0.0, 0.0, 0.0, 0.0, 0.0, 1.708992573524954E9, 0.0, 2024-02-26 19:09:33.524
171.0, 187500.0, 187500.0, 187500.0, 187500.0, -3036.3950772756434, 187500.0, 187500.0, -182012.37851528867, 0.064, 0.006, 0.98, 192.0, 0.0, 0.0, 0.0, 0.0, 0.0, 0.0, 0.0, 0.0, 0.0, 1.708992573529962E9, 0.0, 2024-02-26 19:09:33.529
172.0, 187500.0, 187500.0, 187500.0, 187500.0, -3006.600201916719, 187500.0, 187500.0, -181986.94223009853, 0.064, 0.006, 0.98, 192.0, 0.0, 0.0, 0.0, 0.0, 0.0, 0.0, 0.0, 0.0, 0.0, 1.708992573532959E9, 0.0, 2024-02-26 19:09:33.532
173.0, 187500.0, 187500.0, 187500.0, 187500.0, -2929.3525730791775, 187500.0, 187500.0, -182076.3268561753, 0.064, 0.006, 0.98, 192.0, 0.0, 0.0, 0.0, 0.0, 0.0, 0.0, 0.0, 0.0, 0.0, 1.708992573535949E9, 0.0, 2024-02-26 19:09:33.535
174.0, 187500.0, 187500.0, 187500.0, 187500.0, -2932.4594655584656, 187500.0, 187500.0, -182157.6425025037, 0.064, 0.006, 0.98, 192.0, 0.0, 0.0, 0.0, 0.0, 0.0, 0.0, 0.0, 0.0, 0.0, 1.708992573540995E9, 0.0, 2024-02-26 19:09:33.540
175.0, 187500.0, 187500.0, 187500.0, 187500.0, -3057.3610135747213, 187500.0, 187500.0, -182030.9751666755, 0.064, 0.006, 0.98, 192.0, 0.0, 0.0, 0.0, 0.0, 0.0, 0.0, 0.0, 0.0, 0.0, 1.708992573545003E9, 0.0, 2024-02-26 19:09:33.545
176.0, 187500.0, 187500.0, 187500.0, 187500.0, -3051.616615249707, 187500.0, 187500.0, -181984.26002076388, 0.062, 0.004, 0.982, 192.0, 1.0, 240.0, 0.0, 32.0, 30.0, 176.0, 0.0, 0.0, 0.0, 1.708992573549063E9, 0.0, 2024-02-26 19:09:33.549
177.0, 187500.0, 187500.0, 187500.0, 187500.0, -2989.6128761306854, 187500.0, 187500.0, -182046.24140813845, 0.062, 0.004, 0.982, 192.0, 0.0, 0.0, 0.0, 0.0, 0.0, 0.0, 0.0, 0.0, 0.0, 1.708992573554999E9, 0.0, 2024-02-26 19:09:33.554
178.0, 187500.0, 187500.0, 187500.0, 187500.0, -2942.7189162634513, 187500.0, 187500.0, -182150.55699951138, 0.062, 0.004, 0.982, 192.0, 0.0, 0.0, 0.0, 0.0, 0.0, 0.0, 0.0, 0.0, 0.0, 1.708992573557997E9, 0.0, 2024-02-26 19:09:33.557
179.0, 187500.0, 187500.0, 187500.0, 187500.0, -3054.8352664512718, 187500.0, 187500.0, -182048.18600990606, 0.062, 0.004, 0.982, 192.0, 0.0, 0.0, 0.0, 0.0, 0.0, 0.0, 0.0, 0.0, 0.0, 1.708992573560997E9, 0.0, 2024-02-26 19:09:33.560
180.0, 187500.0, 187500.0, 187500.0, 187500.0, -3066.2570078679337, 187500.0, 187500.0, -181990.11617781117, 0.062, 0.004, 0.982, 192.0, 0.0, 0.0, 0.0, 0.0, 0.0, 0.0, 0.0, 0.0, 0.0, 1.708992573564997E9, 0.0, 2024-02-26 19:09:33.564
181.0, 187500.0, 187500.0, 187500.0, 187500.0, -3031.2541760509225, 187500.0, 187500.0, -182019.5534252588, 0.062, 0.004, 0.982, 192.0, 0.0, 0.0, 0.0, 0.0, 0.0, 0.0, 0.0, 0.0, 0.0, 1.708992573569007E9, 0.0, 2024-02-26 19:09:33.569
182.0, 187500.0, 187500.0, 187500.0, 187500.0, -2958.566303082264, 187500.0, 187500.0, -182153.50742977948, 0.062, 0.004, 0.982, 192.0, 0.0, 0.0, 0.0, 0.0, 0.0, 0.0, 0.0, 0.0, 0.0, 1.708992573573001E9, 0.0, 2024-02-26 19:09:33.573
183.0, 187500.0, 187500.0, 187500.0, 187500.0, -3079.3774818631987, 187500.0, 187500.0, -182076.1256904752, 0.062, 0.004, 0.982, 192.0, 0.0, 0.0, 0.0, 0.0, 0.0, 0.0, 0.0, 0.0, 0.0, 1.708992573577012E9, 0.0, 2024-02-26 19:09:33.577
184.0, 187500.0, 187500.0, 187500.0, 187500.0, -3114.112092746746, 187500.0, 187500.0, -181994.11714006867, 0.062, 0.004, 0.982, 192.0, 0.0, 0.0, 0.0, 0.0, 0.0, 0.0, 0.0, 0.0, 0.0, 1.70899257358304E9, 0.0, 2024-02-26 19:09:33.583
185.0, 187500.0, 187500.0, 187500.0, 187500.0, -3076.4717550840087, 187500.0, 187500.0, -182012.57968098877, 0.064, 0.0, 0.976, 192.0, 2.0, 0.0, 0.0, 0.0, 30.0, 128.0, 0.0, 0.0, 0.0, 1.708992573586012E9, 0.0, 2024-02-26 19:09:33.586
186.0, 187500.0, 187500.0, 187500.0, 187500.0, -2996.340751211733, 187500.0, 187500.0, -182145.6843192201, 0.064, 0.0, 0.976, 192.0, 0.0, 0.0, 0.0, 0.0, 0.0, 0.0, 0.0, 0.0, 0.0, 1.70899257358905E9, 0.0, 2024-02-26 19:09:33.589
187.0, 187500.0, 187500.0, 187500.0, 187500.0, -3090.8662785132265, 187500.0, 187500.0, -182100.91377507613, 0.064, 0.0, 0.976, 192.0, 0.0, 0.0, 0.0, 0.0, 0.0, 0.0, 0.0, 0.0, 0.0, 1.708992573593047E9, 0.0, 2024-02-26 19:09:33.593
188.0, 187500.0, 187500.0, 187500.0, 187500.0, -3138.9225290921368, 187500.0, 187500.0, -182002.94607912854, 0.064, 0.0, 0.976, 192.0, 0.0, 0.0, 0.0, 0.0, 0.0, 0.0, 0.0, 0.0, 0.0, 1.708992573597058E9, 0.0, 2024-02-26 19:09:33.597
189.0, 187500.0, 187500.0, 187500.0, 187500.0, -3093.235563425489, 187500.0, 187500.0, -182002.63315470616, 0.064, 0.0, 0.976, 192.0, 0.0, 0.0, 0.0, 0.0, 0.0, 0.0, 0.0, 0.0, 0.0, 1.708992573601054E9, 0.0, 2024-02-26 19:09:33.601
190.0, 187500.0, 187500.0, 187500.0, 187500.0, -2997.279524478856, 187500.0, 187500.0, -182122.88553987572, 0.064, 0.0, 0.976, 192.0, 0.0, 0.0, 0.0, 0.0, 0.0, 0.0, 0.0, 0.0, 0.0, 1.708992573605052E9, 0.0, 2024-02-26 19:09:33.605
191.0, 187500.0, 187500.0, 187500.0, 187500.0, -3056.824571707794, 187500.0, 187500.0, -182120.51625496344, 0.064, 0.0, 0.976, 192.0, 0.0, 0.0, 0.0, 0.0, 0.0, 0.0, 0.0, 0.0, 0.0, 1.708992573609057E9, 0.0, 2024-02-26 19:09:33.609
192.0, 187500.0, 187500.0, 187500.0, 187500.0, -3143.459933216564, 187500.0, 187500.0, -182013.965489145, 0.064, 0.0, 0.976, 192.0, 0.0, 0.0, 0.0, 0.0, 0.0, 0.0, 0.0, 0.0, 0.0, 1.708992573612088E9, 0.0, 2024-02-26 19:09:33.612
193.0, 187500.0, 187500.0, 187500.0, 187500.0, -3093.861412270238, 187500.0, 187500.0, -181982.8071573743, 0.064, 0.0, 0.976, 192.0, 0.0, 0.0, 0.0, 0.0, 0.0, 0.0, 0.0, 0.0, 0.0, 1.708992573616091E9, 0.0, 2024-02-26 19:09:33.616
194.0, 187500.0, 187500.0, 187500.0, 187500.0, -2988.1600127410907, 187500.0, 187500.0, -182089.96142029302, 0.064, 0.0, 0.976, 192.0, 0.0, 0.0, 0.0, 0.0, 0.0, 0.0, 0.0, 0.0, 0.0, 1.708992573620095E9, 0.0, 2024-02-26 19:09:33.620
195.0, 187500.0, 187500.0, 187500.0, 187500.0, -3009.21535601799, 187500.0, 187500.0, -182134.77666792594, 0.062, -0.002, 0.978, 192.0, 1.0, 240.0, 255.0, 240.0, 30.0, 144.0, 0.0, 0.0, 0.0, 1.708992573625116E9, 0.0, 2024-02-26 19:09:33.625
196.0, 187500.0, 187500.0, 187500.0, 187500.0, -3133.245186000489, 187500.0, 187500.0, -182026.59422476223, 0.062, -0.002, 0.978, 192.0, 0.0, 0.0, 0.0, 0.0, 0.0, 0.0, 0.0, 0.0, 0.0, 1.708992573629112E9, 0.0, 2024-02-26 19:09:33.629
197.0, 187500.0, 187500.0, 187500.0, 187500.0, -3135.972098824036, 187500.0, 187500.0, -182003.92955588456, 0.062, -0.002, 0.978, 192.0, 0.0, 0.0, 0.0, 0.0, 0.0, 0.0, 0.0, 0.0, 0.0, 1.708992573633111E9, 0.0, 2024-02-26 19:09:33.633
198.0, 187500.0, 187500.0, 187500.0, 187500.0, -3049.3814408041767, 187500.0, 187500.0, -182100.15381576464, 0.062, -0.002, 0.978, 192.0, 0.0, 0.0, 0.0, 0.0, 0.0, 0.0, 0.0, 0.0, 0.0, 1.708992573639089E9, 0.0, 2024-02-26 19:09:33.639
199.0, 187500.0, 187500.0, 187500.0, 187500.0, -3015.2950305098334, 187500.0, 187500.0, -182187.03504646244, 0.062, -0.002, 0.978, 192.0, 0.0, 0.0, 0.0, 0.0, 0.0, 0.0, 0.0, 0.0, 0.0, 1.708992573642115E9, 0.0, 2024-02-26 19:09:33.642
200.0, 187500.0, 187500.0, 187500.0, 187500.0, -3142.0294215714243, 187500.0, 187500.0, -182043.35803310372, 0.062, -0.002, 0.978, 192.0, 0.0, 0.0, 0.0, 0.0, 0.0, 0.0, 0.0, 0.0, 0.0, 1.708992573645106E9, 0.0, 2024-02-26 19:09:33.645
201.0, 187500.0, 187500.0, 187500.0, 187500.0, -3129.4453894430867, 187500.0, 187500.0, -181976.88394509364, 0.062, -0.002, 0.978, 192.0, 0.0, 0.0, 0.0, 0.0, 0.0, 0.0, 0.0, 0.0, 0.0, 1.708992573649098E9, 0.0, 2024-02-26 19:09:33.649
202.0, 187500.0, 187500.0, 187500.0, 187500.0, -3060.110278142724, 187500.0, 187500.0, -182033.65737601012, 0.062, -0.002, 0.978, 192.0, 0.0, 0.0, 0.0, 0.0, 0.0, 0.0, 0.0, 0.0, 0.0, 1.708992573652096E9, 0.0, 2024-02-26 19:09:33.652
203.0, 187500.0, 187500.0, 187500.0, 187500.0, -3013.1939665310347, 187500.0, 187500.0, -182146.6901477206, 0.062, -0.002, 0.978, 192.0, 0.0, 0.0, 0.0, 0.0, 0.0, 0.0, 0.0, 0.0, 0.0, 1.708992573657092E9, 0.0, 2024-02-26 19:09:33.657
204.0, 187500.0, 187500.0, 187500.0, 187500.0, -3130.3171074768434, 187500.0, 187500.0, -182049.50476282893, 0.062, -0.002, 0.978, 192.0, 0.0, 0.0, 0.0, 0.0, 0.0, 0.0, 0.0, 0.0, 0.0, 1.708992573661094E9, 0.0, 2024-02-26 19:09:33.661
205.0, 187500.0, 187500.0, 187500.0, 187500.0, -3143.303471005377, 187500.0, 187500.0, -181990.51850921137, 0.06, -0.004, 0.982, 192.0, 1.0, 224.0, 255.0, 224.0, 30.0, 176.0, 0.0, 0.0, 0.0, 1.708992573665112E9, 0.0, 2024-02-26 19:09:33.665
206.0, 187500.0, 187500.0, 187500.0, 187500.0, -3091.7603482914387, 187500.0, 187500.0, -182021.34156481523, 0.06, -0.004, 0.982, 192.0, 0.0, 0.0, 0.0, 0.0, 0.0, 0.0, 0.0, 0.0, 0.0, 1.708992573668155E9, 0.0, 2024-02-26 19:09:33.668
207.0, 187500.0, 187500.0, 187500.0, 187500.0, -3024.571004458786, 187500.0, 187500.0, -182156.16728736967, 0.06, -0.004, 0.982, 192.0, 0.0, 0.0, 0.0, 0.0, 0.0, 0.0, 0.0, 0.0, 0.0, 1.708992573672138E9, 0.0, 2024-02-26 19:09:33.672
208.0, 187500.0, 187500.0, 187500.0, 187500.0, -3145.8292181288266, 187500.0, 187500.0, -182081.4677574, 0.06, -0.004, 0.982, 192.0, 0.0, 0.0, 0.0, 0.0, 0.0, 0.0, 0.0, 0.0, 0.0, 1.708992573676138E9, 0.0, 2024-02-26 19:09:33.676
209.0, 187500.0, 187500.0, 187500.0, 187500.0, -3182.7990034579043, 187500.0, 187500.0, -181993.08895982374, 0.06, -0.004, 0.982, 192.0, 0.0, 0.0, 0.0, 0.0, 0.0, 0.0, 0.0, 0.0, 0.0, 1.708992573681139E9, 0.0, 2024-02-26 19:09:33.681
210.0, 187500.0, 187500.0, 187500.0, 187500.0, -3135.3909534681984, 187500.0, 187500.0, -182005.24830880744, 0.06, -0.004, 0.982, 192.0, 0.0, 0.0, 0.0, 0.0, 0.0, 0.0, 0.0, 0.0, 0.0, 1.708992573685137E9, 0.0, 2024-02-26 19:09:33.685
211.0, 187500.0, 187500.0, 187500.0, 187500.0, -3037.3562022872215, 187500.0, 187500.0, -182133.77083942544, 0.06, -0.004, 0.982, 192.0, 0.0, 0.0, 0.0, 0.0, 0.0, 0.0, 0.0, 0.0, 0.0, 1.708992573689135E9, 0.0, 2024-02-26 19:09:33.689
212.0, 187500.0, 187500.0, 187500.0, 187500.0, -3115.5202526474304, 187500.0, 187500.0, -182097.6280686412, 0.06, -0.004, 0.982, 192.0, 0.0, 0.0, 0.0, 0.0, 0.0, 0.0, 0.0, 0.0, 0.0, 1.708992573695128E9, 0.0, 2024-02-26 19:09:33.695
213.0, 187500.0, 187500.0, 187500.0, 187500.0, -3168.560942239874, 187500.0, 187500.0, -182010.56802398778, 0.06, -0.004, 0.982, 192.0, 0.0, 0.0, 0.0, 0.0, 0.0, 0.0, 0.0, 0.0, 0.0, 1.708992573698169E9, 0.0, 2024-02-26 19:09:33.698
214.0, 187500.0, 187500.0, 187500.0, 187500.0, -3123.14219750669, 187500.0, 187500.0, -182002.7002099395, 0.06, -0.004, 0.982, 192.0, 0.0, 0.0, 0.0, 0.0, 0.0, 0.0, 0.0, 0.0, 0.0, 1.708992573701142E9, 0.0, 2024-02-26 19:09:33.701
215.0, 187500.0, 187500.0, 187500.0, 187500.0, -3008.9694868289816, 187500.0, 187500.0, -182123.82431314283, 0.062, -0.004, 0.978, 192.0, 1.0, 240.0, 255.0, 224.0, 30.0, 144.0, 0.0, 0.0, 0.0, 1.70899257370413E9, 0.0, 2024-02-26 19:09:33.704
216.0, 187500.0, 187500.0, 187500.0, 187500.0, -3047.7050599700287, 187500.0, 187500.0, -182127.86997888924, 0.062, -0.004, 0.978, 192.0, 0.0, 0.0, 0.0, 0.0, 0.0, 0.0, 0.0, 0.0, 0.0, 1.708992573708174E9, 0.0, 2024-02-26 19:09:33.708
217.0, 187500.0, 187500.0, 187500.0, 187500.0, -3125.6679446301396, 187500.0, 187500.0, -182009.51749199838, 0.062, -0.004, 0.978, 192.0, 0.0, 0.0, 0.0, 0.0, 0.0, 0.0, 0.0, 0.0, 0.0, 1.708992573713186E9, 0.0, 2024-02-26 19:09:33.713
218.0, 187500.0, 187500.0, 187500.0, 187500.0, -3102.5562408633523, 187500.0, 187500.0, -181984.48353820844, 0.062, -0.004, 0.978, 192.0, 0.0, 0.0, 0.0, 0.0, 0.0, 0.0, 0.0, 0.0, 0.0, 1.708992573717183E9, 0.0, 2024-02-26 19:09:33.717
219.0, 187500.0, 187500.0, 187500.0, 187500.0, -3024.88392888116, 187500.0, 187500.0, -182082.58534462278, 0.062, -0.004, 0.978, 192.0, 0.0, 0.0, 0.0, 0.0, 0.0, 0.0, 0.0, 0.0, 0.0, 1.708992573720182E9, 0.0, 2024-02-26 19:09:33.720
220.0, 187500.0, 187500.0, 187500.0, 187500.0, -3036.0598011088136, 187500.0, 187500.0, -182151.60753150078, 0.062, -0.004, 0.978, 192.0, 0.0, 0.0, 0.0, 0.0, 0.0, 0.0, 0.0, 0.0, 0.0, 1.70899257372418E9, 0.0, 2024-02-26 19:09:33.724
221.0, 187500.0, 187500.0, 187500.0, 187500.0, -3152.132410065223, 187500.0, 187500.0, -182033.25504460992, 0.062, -0.004, 0.978, 192.0, 0.0, 0.0, 0.0, 0.0, 0.0, 0.0, 0.0, 0.0, 0.0, 1.708992573728179E9, 0.0, 2024-02-26 19:09:33.728
222.0, 187500.0, 187500.0, 187500.0, 187500.0, -3136.106209290768, 187500.0, 187500.0, -181990.56321270028, 0.062, -0.004, 0.978, 192.0, 0.0, 0.0, 0.0, 0.0, 0.0, 0.0, 0.0, 0.0, 0.0, 1.708992573732182E9, 0.0, 2024-02-26 19:09:33.732
223.0, 187500.0, 187500.0, 187500.0, 187500.0, -3058.2774350973887, 187500.0, 187500.0, -182068.48139387148, 0.062, -0.004, 0.978, 192.0, 0.0, 0.0, 0.0, 0.0, 0.0, 0.0, 0.0, 0.0, 0.0, 1.708992573736181E9, 0.0, 2024-02-26 19:09:33.736
224.0, 187500.0, 187500.0, 187500.0, 187500.0, -3056.3551850742324, 187500.0, 187500.0, -182145.30433956438, 0.062, -0.004, 0.978, 192.0, 0.0, 0.0, 0.0, 0.0, 0.0, 0.0, 0.0, 0.0, 0.0, 1.708992573741182E9, 0.0, 2024-02-26 19:09:33.741
225.0, 187500.0, 187500.0, 187500.0, 187500.0, -3178.932151667136, 187500.0, 187500.0, -182020.201625848, 0.056, -0.002, 0.978, 192.0, 1.0, 192.0, 255.0, 240.0, 30.0, 144.0, 0.0, 0.0, 0.0, 1.708992573745183E9, 0.0, 2024-02-26 19:09:33.745
226.0, 187500.0, 187500.0, 187500.0, 187500.0, -3155.7310409225274, 187500.0, 187500.0, -182012.1102943552, 0.056, -0.002, 0.978, 192.0, 0.0, 0.0, 0.0, 0.0, 0.0, 0.0, 0.0, 0.0, 0.0, 1.708992573748193E9, 0.0, 2024-02-26 19:09:33.748
227.0, 187500.0, 187500.0, 187500.0, 187500.0, -3059.663243253618, 187500.0, 187500.0, -182076.43861489758, 0.056, -0.002, 0.978, 192.0, 0.0, 0.0, 0.0, 0.0, 0.0, 0.0, 0.0, 0.0, 0.0, 1.708992573752208E9, 0.0, 2024-02-26 19:09:33.752
228.0, 187500.0, 187500.0, 187500.0, 187500.0, -2990.8198703312723, 187500.0, 187500.0, -182195.37224714426, 0.056, -0.002, 0.978, 192.0, 0.0, 0.0, 0.0, 0.0, 0.0, 0.0, 0.0, 0.0, 0.0, 1.708992573756201E9, 0.0, 2024-02-26 19:09:33.756
229.0, 187500.0, 187500.0, 187500.0, 187500.0, -3114.5144241469416, 187500.0, 187500.0, -182085.91575454662, 0.056, -0.002, 0.978, 192.0, 0.0, 0.0, 0.0, 0.0, 0.0, 0.0, 0.0, 0.0, 0.0, 1.708992573760288E9, 0.0, 2024-02-26 19:09:33.760
230.0, 187500.0, 187500.0, 187500.0, 187500.0, -3128.7971888538827, 187500.0, 187500.0, -181978.62738116115, 0.056, -0.002, 0.978, 192.0, 0.0, 0.0, 0.0, 0.0, 0.0, 0.0, 0.0, 0.0, 0.0, 1.708992573764247E9, 0.0, 2024-02-26 19:09:33.764
231.0, 187500.0, 187500.0, 187500.0, 187500.0, -3077.7681562624166, 187500.0, 187500.0, -182008.712829198, 0.056, -0.002, 0.978, 192.0, 0.0, 0.0, 0.0, 0.0, 0.0, 0.0, 0.0, 0.0, 0.0, 1.708992573769228E9, 0.0, 2024-02-26 19:09:33.769
232.0, 187500.0, 187500.0, 187500.0, 187500.0, -2989.4564139194986, 187500.0, 187500.0, -182137.25771156047, 0.056, -0.002, 0.978, 192.0, 0.0, 0.0, 0.0, 0.0, 0.0, 0.0, 0.0, 0.0, 0.0, 1.708992573773222E9, 0.0, 2024-02-26 19:09:33.773
233.0, 187500.0, 187500.0, 187500.0, 187500.0, -3086.015949966425, 187500.0, 187500.0, -182075.23162069698, 0.056, -0.002, 0.978, 192.0, 0.0, 0.0, 0.0, 0.0, 0.0, 0.0, 0.0, 0.0, 0.0, 1.708992573776225E9, 0.0, 2024-02-26 19:09:33.776
234.0, 187500.0, 187500.0, 187500.0, 187500.0, -3109.3735229222207, 187500.0, 187500.0, -181993.53599471285, 0.056, -0.002, 0.978, 192.0, 0.0, 0.0, 0.0, 0.0, 0.0, 0.0, 0.0, 0.0, 0.0, 1.708992573780239E9, 0.0, 2024-02-26 19:09:33.780
235.0, 187500.0, 187500.0, 187500.0, 187500.0, -3063.0607084108246, 187500.0, 187500.0, -181984.707055653, 0.06, -0.004, 0.978, 192.0, 1.0, 224.0, 255.0, 224.0, 30.0, 144.0, 0.0, 0.0, 0.0, 1.708992573784227E9, 0.0, 2024-02-26 19:09:33.784
236.0, 187500.0, 187500.0, 187500.0, 187500.0, -2965.7188613079625, 187500.0, 187500.0, -182103.4842256885, 0.06, -0.004, 0.978, 192.0, 0.0, 0.0, 0.0, 0.0, 0.0, 0.0, 0.0, 0.0, 0.0, 1.708992573788232E9, 0.0, 2024-02-26 19:09:33.788
237.0, 187500.0, 187500.0, 187500.0, 187500.0, -3059.2832635978775, 187500.0, 187500.0, -182084.2840772014, 0.06, -0.004, 0.978, 192.0, 0.0, 0.0, 0.0, 0.0, 0.0, 0.0, 0.0, 0.0, 0.0, 1.708992573792234E9, 0.0, 2024-02-26 19:09:33.792
238.0, 187500.0, 187500.0, 187500.0, 187500.0, -3113.530947390908, 187500.0, 187500.0, -181999.61566920468, 0.06, -0.004, 0.978, 192.0, 0.0, 0.0, 0.0, 0.0, 0.0, 0.0, 0.0, 0.0, 0.0, 1.708992573797244E9, 0.0, 2024-02-26 19:09:33.797
239.0, 187500.0, 187500.0, 187500.0, 187500.0, -3058.8809321976823, 187500.0, 187500.0, -181988.66331442157, 0.06, -0.004, 0.978, 192.0, 0.0, 0.0, 0.0, 0.0, 0.0, 0.0, 0.0, 0.0, 0.0, 1.708992573801233E9, 0.0, 2024-02-26 19:09:33.801
240.0, 187500.0, 187500.0, 187500.0, 187500.0, -2966.4788206194426, 187500.0, 187500.0, -182089.1344057482, 0.06, -0.004, 0.978, 192.0, 0.0, 0.0, 0.0, 0.0, 0.0, 0.0, 0.0, 0.0, 0.0, 1.708992573804243E9, 0.0, 2024-02-26 19:09:33.804
241.0, 187500.0, 187500.0, 187500.0, 187500.0, -3005.2590972494004, 187500.0, 187500.0, -182097.5833651523, 0.06, -0.004, 0.978, 192.0, 0.0, 0.0, 0.0, 0.0, 0.0, 0.0, 0.0, 0.0, 0.0, 1.708992573808279E9, 0.0, 2024-02-26 19:09:33.808
242.0, 187500.0, 187500.0, 187500.0, 187500.0, -3099.426996639609, 187500.0, 187500.0, -182018.23467233597, 0.06, -0.004, 0.978, 192.0, 0.0, 0.0, 0.0, 0.0, 0.0, 0.0, 0.0, 0.0, 0.0, 1.708992573812271E9, 0.0, 2024-02-26 19:09:33.812
243.0, 187500.0, 187500.0, 187500.0, 187500.0, -3077.1423074176682, 187500.0, 187500.0, -182007.32702104177, 0.06, -0.004, 0.978, 192.0, 0.0, 0.0, 0.0, 0.0, 0.0, 0.0, 0.0, 0.0, 0.0, 1.708992573816273E9, 0.0, 2024-02-26 19:09:33.816
244.0, 187500.0, 187500.0, 187500.0, 187500.0, -2985.3436929397217, 187500.0, 187500.0, -182112.38021998171, 0.06, -0.004, 0.978, 192.0, 0.0, 0.0, 0.0, 0.0, 0.0, 0.0, 0.0, 0.0, 0.0, 1.708992573820291E9, 0.0, 2024-02-26 19:09:33.820
245.0, 187500.0, 187500.0, 187500.0, 187500.0, -3016.457321221509, 187500.0, 187500.0, -182163.38690082871, 0.06, 0.006, 0.974, 192.0, 1.0, 224.0, 0.0, 48.0, 30.0, 112.0, 0.0, 0.0, 0.0, 1.708992573825296E9, 0.0, 2024-02-26 19:09:33.825
246.0, 187500.0, 187500.0, 187500.0, 187500.0, -3121.2870027168997, 187500.0, 187500.0, -182015.9994978904, 0.06, 0.006, 0.974, 192.0, 0.0, 0.0, 0.0, 0.0, 0.0, 0.0, 0.0, 0.0, 0.0, 1.708992573829275E9, 0.0, 2024-02-26 19:09:33.829
247.0, 187500.0, 187500.0, 187500.0, 187500.0, -3096.6106768382406, 187500.0, 187500.0, -181986.2046225315, 0.06, 0.006, 0.974, 192.0, 0.0, 0.0, 0.0, 0.0, 0.0, 0.0, 0.0, 0.0, 0.0, 1.708992573832271E9, 0.0, 2024-02-26 19:09:33.832
248.0, 187500.0, 187500.0, 187500.0, 187500.0, -3017.396094488632, 187500.0, 187500.0, -182045.5708558048, 0.06, 0.006, 0.974, 192.0, 0.0, 0.0, 0.0, 0.0, 0.0, 0.0, 0.0, 0.0, 0.0, 1.708992573836282E9, 0.0, 2024-02-26 19:09:33.836
249.0, 187500.0, 187500.0, 187500.0, 187500.0, -2964.1989426850014, 187500.0, 187500.0, -182141.92922615164, 0.06, 0.006, 0.974, 192.0, 0.0, 0.0, 0.0, 0.0, 0.0, 0.0, 0.0, 0.0, 0.0, 1.708992573840275E9, 0.0, 2024-02-26 19:09:33.840
250.0, 187500.0, 187500.0, 187500.0, 187500.0, -3075.7341475169837, 187500.0, 187500.0, -182037.65833826762, 0.06, 0.006, 0.974, 192.0, 0.0, 0.0, 0.0, 0.0, 0.0, 0.0, 0.0, 0.0, 0.0, 1.708992573844285E9, 0.0, 2024-02-26 19:09:33.844
251.0, 187500.0, 187500.0, 187500.0, 187500.0, -3069.2297898804895, 187500.0, 187500.0, -181981.89073585163, 0.06, 0.006, 0.974, 192.0, 0.0, 0.0, 0.0, 0.0, 0.0, 0.0, 0.0, 0.0, 0.0, 1.708992573850309E9, 0.0, 2024-02-26 19:09:33.850
252.0, 187500.0, 187500.0, 187500.0, 187500.0, -3005.5049664384087, 187500.0, 187500.0, -182025.3201753283, 0.06, 0.006, 0.974, 192.0, 0.0, 0.0, 0.0, 0.0, 0.0, 0.0, 0.0, 0.0, 0.0, 1.70899257385331E9, 0.0, 2024-02-26 19:09:33.853
253.0, 187500.0, 187500.0, 187500.0, 187500.0, -2937.578015038731, 187500.0, 187500.0, -182148.8359151883, 0.06, 0.006, 0.974, 192.0, 0.0, 0.0, 0.0, 0.0, 0.0, 0.0, 0.0, 0.0, 0.0, 1.70899257385631E9, 0.0, 2024-02-26 19:09:33.856
254.0, 187500.0, 187500.0, 187500.0, 187500.0, -3057.428068808087, 187500.0, 187500.0, -182063.02756822438, 0.06, 0.006, 0.974, 192.0, 0.0, 0.0, 0.0, 0.0, 0.0, 0.0, 0.0, 0.0, 0.0, 1.708992573860321E9, 0.0, 2024-02-26 19:09:33.860
255.0, 187500.0, 187500.0, 187500.0, 187500.0, -3067.7769264908943, 187500.0, 187500.0, -182004.22012856248, 0.066, 0.002, 0.974, 192.0, 2.0, 16.0, 0.0, 16.0, 30.0, 112.0, 0.0, 0.0, 0.0, 1.708992573864329E9, 0.0, 2024-02-26 19:09:33.864
0.0, 187500.0, 187500.0, 187500.0, 187500.0, -3000.811100102794, 187500.0, 187500.0, -182043.24627438144, 0.066, 0.002, 0.974, 192.0, 0.0, 0.0, 0.0, 0.0, 0.0, 0.0, 0.0, 0.0, 0.0, 1.708992573868325E9, 0.0, 2024-02-26 19:09:33.868
1.0, 187500.0, 187500.0, 187500.0, 187500.0, -2930.403105068577, 187500.0, 187500.0, -182179.36839811425, 0.066, 0.002, 0.974, 192.0, 0.0, 0.0, 0.0, 0.0, 0.0, 0.0, 0.0, 0.0, 0.0, 1.708992573874341E9, 0.0, 2024-02-26 19:09:33.874
2.0, 187500.0, 187500.0, 187500.0, 187500.0, -3048.330908814777, 187500.0, 187500.0, -182107.6416501572, 0.066, 0.002, 0.974, 192.0, 0.0, 0.0, 0.0, 0.0, 0.0, 0.0, 0.0, 0.0, 0.0, 1.708992573877327E9, 0.0, 2024-02-26 19:09:33.877
3.0, 187500.0, 187500.0, 187500.0, 187500.0, -3077.052900439847, 187500.0, 187500.0, -181982.65069516312, 0.066, 0.002, 0.974, 192.0, 0.0, 0.0, 0.0, 0.0, 0.0, 0.0, 0.0, 0.0, 0.0, 1.708992573881318E9, 0.0, 2024-02-26 19:09:33.881
4.0, 187500.0, 187500.0, 187500.0, 187500.0, -3016.5243764548754, 187500.0, 187500.0, -181988.99859058842, 0.066, 0.002, 0.974, 192.0, 0.0, 0.0, 0.0, 0.0, 0.0, 0.0, 0.0, 0.0, 0.0, 1.708992573884358E9, 0.0, 2024-02-26 19:09:33.884
5.0, 187500.0, 187500.0, 187500.0, 187500.0, -2921.931793920016, 187500.0, 187500.0, -182109.92152809163, 0.066, 0.002, 0.974, 192.0, 0.0, 0.0, 0.0, 0.0, 0.0, 0.0, 0.0, 0.0, 0.0, 1.708992573887369E9, 0.0, 2024-02-26 19:09:33.887
6.0, 187500.0, 187500.0, 187500.0, 187500.0, -2990.7975185868168, 187500.0, 187500.0, -182099.1926907531, 0.066, 0.002, 0.974, 192.0, 0.0, 0.0, 0.0, 0.0, 0.0, 0.0, 0.0, 0.0, 0.0, 1.708992573892366E9, 0.0, 2024-02-26 19:09:33.892
7.0, 187500.0, 187500.0, 187500.0, 187500.0, -3068.045147424358, 187500.0, 187500.0, -181997.78282615935, 0.066, 0.002, 0.974, 192.0, 0.0, 0.0, 0.0, 0.0, 0.0, 0.0, 0.0, 0.0, 0.0, 1.708992573896374E9, 0.0, 2024-02-26 19:09:33.896
8.0, 187500.0, 187500.0, 187500.0, 187500.0, -3045.1346093576685, 187500.0, 187500.0, -181975.27461949285, 0.066, 0.002, 0.974, 192.0, 0.0, 0.0, 0.0, 0.0, 0.0, 0.0, 0.0, 0.0, 0.0, 1.708992573900375E9, 0.0, 2024-02-26 19:09:33.900
9.0, 187500.0, 187500.0, 187500.0, 187500.0, -2935.991041182404, 187500.0, 187500.0, -182096.8904610742, 0.066, 0.004, 0.976, 192.0, 2.0, 16.0, 0.0, 32.0, 30.0, 128.0, 0.0, 0.0, 0.0, 1.708992573904367E9, 0.0, 2024-02-26 19:09:33.904
10.0, 187500.0, 187500.0, 187500.0, 187500.0, -2971.4185561440654, 187500.0, 187500.0, -182129.12167657874, 0.066, 0.004, 0.976, 192.0, 0.0, 0.0, 0.0, 0.0, 0.0, 0.0, 0.0, 0.0, 0.0, 1.708992573908356E9, 0.0, 2024-02-26 19:09:33.908
11.0, 187500.0, 187500.0, 187500.0, 187500.0, -3078.1257841737015, 187500.0, 187500.0, -182001.44851225003, 0.066, 0.004, 0.976, 192.0, 0.0, 0.0, 0.0, 0.0, 0.0, 0.0, 0.0, 0.0, 0.0, 1.708992573912369E9, 0.0, 2024-02-26 19:09:33.912
12.0, 187500.0, 187500.0, 187500.0, 187500.0, -3045.1569611021237, 187500.0, 187500.0, -181966.91506706658, 0.066, 0.004, 0.976, 192.0, 0.0, 0.0, 0.0, 0.0, 0.0, 0.0, 0.0, 0.0, 0.0, 1.708992573915367E9, 0.0, 2024-02-26 19:09:33.915
13.0, 187500.0, 187500.0, 187500.0, 187500.0, -2966.8140967862723, 187500.0, 187500.0, -182066.84971652625, 0.066, 0.004, 0.976, 192.0, 0.0, 0.0, 0.0, 0.0, 0.0, 0.0, 0.0, 0.0, 0.0, 1.708992573920465E9, 0.0, 2024-02-26 19:09:33.920
14.0, 187500.0, 187500.0, 187500.0, 187500.0, -2947.72570702144, 187500.0, 187500.0, -182127.98173761152, 0.066, 0.004, 0.976, 192.0, 0.0, 0.0, 0.0, 0.0, 0.0, 0.0, 0.0, 0.0, 0.0, 1.708992573924464E9, 0.0, 2024-02-26 19:09:33.924
15.0, 187500.0, 187500.0, 187500.0, 187500.0, -3054.142362373157, 187500.0, 187500.0, -182019.08403862527, 0.066, 0.004, 0.976, 192.0, 0.0, 0.0, 0.0, 0.0, 0.0, 0.0, 0.0, 0.0, 0.0, 1.708992573928472E9, 0.0, 2024-02-26 19:09:33.928
16.0, 187500.0, 187500.0, 187500.0, 187500.0, -3044.2181878350007, 187500.0, 187500.0, -181977.21922126046, 0.066, 0.004, 0.976, 192.0, 0.0, 0.0, 0.0, 0.0, 0.0, 0.0, 0.0, 0.0, 0.0, 1.70899257393247E9, 0.0, 2024-02-26 19:09:33.932
17.0, 187500.0, 187500.0, 187500.0, 187500.0, -2979.375777170155, 187500.0, 187500.0, -182038.64181502364, 0.066, 0.004, 0.976, 192.0, 0.0, 0.0, 0.0, 0.0, 0.0, 0.0, 0.0, 0.0, 0.0, 1.708992573936478E9, 0.0, 2024-02-26 19:09:33.936
18.0, 187500.0, 187500.0, 187500.0, 187500.0, -2948.7091837774738, 187500.0, 187500.0, -182142.15274359618, 0.068, 0.006, 0.974, 192.0, 2.0, 32.0, 0.0, 48.0, 30.0, 112.0, 0.0, 0.0, 0.0, 1.708992573941069E9, 0.0, 2024-02-26 19:09:33.941
19.0, 187500.0, 187500.0, 187500.0, 187500.0, -3082.3502638757545, 187500.0, 187500.0, -182038.79827723483, 0.068, 0.006, 0.974, 192.0, 0.0, 0.0, 0.0, 0.0, 0.0, 0.0, 0.0, 0.0, 0.0, 1.708992573943465E9, 0.0, 2024-02-26 19:09:33.943
20.0, 187500.0, 187500.0, 187500.0, 187500.0, -3087.3123511448325, 187500.0, 187500.0, -181985.48936670893, 0.068, 0.006, 0.974, 192.0, 0.0, 0.0, 0.0, 0.0, 0.0, 0.0, 0.0, 0.0, 0.0, 1.708992573948461E9, 0.0, 2024-02-26 19:09:33.948
21.0, 187500.0, 187500.0, 187500.0, 187500.0, -3036.529187742375, 187500.0, 187500.0, -182026.7730387179, 0.068, 0.006, 0.974, 192.0, 0.0, 0.0, 0.0, 0.0, 0.0, 0.0, 0.0, 0.0, 0.0, 1.708992573952458E9, 0.0, 2024-02-26 19:09:33.952
22.0, 187500.0, 187500.0, 187500.0, 187500.0, -2978.1240794806577, 187500.0, 187500.0, -182152.45689779008, 0.068, 0.006, 0.974, 192.0, 0.0, 0.0, 0.0, 0.0, 0.0, 0.0, 0.0, 0.0, 0.0, 1.708992573956449E9, 0.0, 2024-02-26 19:09:33.956
23.0, 187500.0, 187500.0, 187500.0, 187500.0, -3114.983810780503, 187500.0, 187500.0, -182057.57374257728, 0.068, 0.006, 0.974, 192.0, 0.0, 0.0, 0.0, 0.0, 0.0, 0.0, 0.0, 0.0, 0.0, 1.708992573960478E9, 0.0, 2024-02-26 19:09:33.960
24.0, 187500.0, 187500.0, 187500.0, 187500.0, -3126.80788359736, 187500.0, 187500.0, -181983.76828238586, 0.068, 0.006, 0.974, 192.0, 0.0, 0.0, 0.0, 0.0, 0.0, 0.0, 0.0, 0.0, 0.0, 1.708992573964476E9, 0.0, 2024-02-26 19:09:33.964
25.0, 187500.0, 187500.0, 187500.0, 187500.0, -3063.239522366467, 187500.0, 187500.0, -182012.44557052202, 0.068, 0.006, 0.974, 192.0, 0.0, 0.0, 0.0, 0.0, 0.0, 0.0, 0.0, 0.0, 0.0, 1.708992573968478E9, 0.0, 2024-02-26 19:09:33.968
26.0, 187500.0, 187500.0, 187500.0, 187500.0, -2977.5429341248196, 187500.0, 187500.0, -182133.07793534733, 0.068, 0.006, 0.974, 192.0, 0.0, 0.0, 0.0, 0.0, 0.0, 0.0, 0.0, 0.0, 0.0, 1.708992573971464E9, 0.0, 2024-02-26 19:09:33.971
27.0, 187500.0, 187500.0, 187500.0, 187500.0, -3062.010176421425, 187500.0, 187500.0, -182083.4347109121, 0.068, 0.006, 0.974, 192.0, 0.0, 0.0, 0.0, 0.0, 0.0, 0.0, 0.0, 0.0, 0.0, 1.708992573975465E9, 0.0, 2024-02-26 19:09:33.975
28.0, 187500.0, 187500.0, 187500.0, 187500.0, -3096.4095111381425, 187500.0, 187500.0, -182000.1074075827, 0.062, 0.008, 0.98, 192.0, 1.0, 240.0, 0.0, 64.0, 30.0, 160.0, 0.0, 0.0, 0.0, 1.708992573980458E9, 0.0, 2024-02-26 19:09:33.980
29.0, 187500.0, 187500.0, 187500.0, 187500.0, -3048.4873710259644, 187500.0, 187500.0, -181996.93345987005, 0.062, 0.008, 0.98, 192.0, 0.0, 0.0, 0.0, 0.0, 0.0, 0.0, 0.0, 0.0, 0.0, 1.70899257398446E9, 0.0, 2024-02-26 19:09:33.984
30.0, 187500.0, 187500.0, 187500.0, 187500.0, -2944.6188145421524, 187500.0, 187500.0, -182125.52304572143, 0.062, 0.008, 0.98, 192.0, 0.0, 0.0, 0.0, 0.0, 0.0, 0.0, 0.0, 0.0, 0.0, 1.708992573988462E9, 0.0, 2024-02-26 19:09:33.988
31.0, 187500.0, 187500.0, 187500.0, 187500.0, -3009.014190317892, 187500.0, 187500.0, -182116.89527236167, 0.062, 0.008, 0.98, 192.0, 0.0, 0.0, 0.0, 0.0, 0.0, 0.0, 0.0, 0.0, 0.0, 1.708992573992462E9, 0.0, 2024-02-26 19:09:33.992
32.0, 187500.0, 187500.0, 187500.0, 187500.0, -3092.5426593473744, 187500.0, 187500.0, -181997.00051510343, 0.062, 0.008, 0.98, 192.0, 0.0, 0.0, 0.0, 0.0, 0.0, 0.0, 0.0, 0.0, 0.0, 1.708992573996454E9, 0.0, 2024-02-26 19:09:33.996
33.0, 187500.0, 187500.0, 187500.0, 187500.0, -3068.6039410357407, 187500.0, 187500.0, -181988.66331442157, 0.062, 0.008, 0.98, 192.0, 0.0, 0.0, 0.0, 0.0, 0.0, 0.0, 0.0, 0.0, 0.0, 1.708992573999461E9, 0.0, 2024-02-26 19:09:33.999
34.0, 187500.0, 187500.0, 187500.0, 187500.0, -2984.9860650284368, 187500.0, 187500.0, -182099.72913262, 0.062, 0.008, 0.98, 192.0, 0.0, 0.0, 0.0, 0.0, 0.0, 0.0, 0.0, 0.0, 0.0, 1.708992574003457E9, 0.0, 2024-02-26 19:09:34.003
35.0, 187500.0, 187500.0, 187500.0, 187500.0, -3021.6429259351407, 187500.0, 187500.0, -182134.21787431455, 0.062, 0.008, 0.98, 192.0, 0.0, 0.0, 0.0, 0.0, 0.0, 0.0, 0.0, 0.0, 0.0, 1.708992574008457E9, 0.0, 2024-02-26 19:09:34.008
36.0, 187500.0, 187500.0, 187500.0, 187500.0, -3127.366677208743, 187500.0, 187500.0, -182006.16473033009, 0.062, 0.008, 0.98, 192.0, 0.0, 0.0, 0.0, 0.0, 0.0, 0.0, 0.0, 0.0, 0.0, 1.708992574012461E9, 0.0, 2024-02-26 19:09:34.012
37.0, 187500.0, 187500.0, 187500.0, 187500.0, -3107.1830519656005, 187500.0, 187500.0, -181978.44856720552, 0.062, 0.008, 0.98, 192.0, 0.0, 0.0, 0.0, 0.0, 0.0, 0.0, 0.0, 0.0, 0.0, 1.708992574016479E9, 0.0, 2024-02-26 19:09:34.016
38.0, 187500.0, 187500.0, 187500.0, 187500.0, -3031.4776934954757, 187500.0, 187500.0, -182061.10531820124, 0.062, 0.006, 0.978, 192.0, 1.0, 240.0, 0.0, 48.0, 30.0, 144.0, 0.0, 0.0, 0.0, 1.708992574020497E9, 0.0, 2024-02-26 19:09:34.020
39.0, 187500.0, 187500.0, 187500.0, 187500.0, -3020.0336003343587, 187500.0, 187500.0, -182139.80581042837, 0.062, 0.006, 0.978, 192.0, 0.0, 0.0, 0.0, 0.0, 0.0, 0.0, 0.0, 0.0, 0.0, 1.708992574024482E9, 0.0, 2024-02-26 19:09:34.024
40.0, 187500.0, 187500.0, 187500.0, 187500.0, -3132.7310958780167, 187500.0, 187500.0, -182027.9129776851, 0.062, 0.006, 0.978, 192.0, 0.0, 0.0, 0.0, 0.0, 0.0, 0.0, 0.0, 0.0, 0.0, 1.708992574027509E9, 0.0, 2024-02-26 19:09:34.027
41.0, 187500.0, 187500.0, 187500.0, 187500.0, -3113.687409602095, 187500.0, 187500.0, -181987.16574754307, 0.062, 0.006, 0.978, 192.0, 0.0, 0.0, 0.0, 0.0, 0.0, 0.0, 0.0, 0.0, 0.0, 1.708992574031491E9, 0.0, 2024-02-26 19:09:34.031
42.0, 187500.0, 187500.0, 187500.0, 187500.0, -3044.0617256238133, 187500.0, 187500.0, -182046.73314651646, 0.062, 0.006, 0.978, 192.0, 0.0, 0.0, 0.0, 0.0, 0.0, 0.0, 0.0, 0.0, 0.0, 1.708992574036483E9, 0.0, 2024-02-26 19:09:34.036
43.0, 187500.0, 187500.0, 187500.0, 187500.0, -3000.49817568042, 187500.0, 187500.0, -182156.41315655867, 0.062, 0.006, 0.978, 192.0, 0.0, 0.0, 0.0, 0.0, 0.0, 0.0, 0.0, 0.0, 0.0, 1.708992574040477E9, 0.0, 2024-02-26 19:09:34.040
44.0, 187500.0, 187500.0, 187500.0, 187500.0, -3122.583403895307, 187500.0, 187500.0, -182046.35316686073, 0.062, 0.006, 0.978, 192.0, 0.0, 0.0, 0.0, 0.0, 0.0, 0.0, 0.0, 0.0, 0.0, 1.708992574044527E9, 0.0, 2024-02-26 19:09:34.044
45.0, 187500.0, 187500.0, 187500.0, 187500.0, -3124.9303370631146, 187500.0, 187500.0, -181985.06468356427, 0.062, 0.006, 0.978, 192.0, 0.0, 0.0, 0.0, 0.0, 0.0, 0.0, 0.0, 0.0, 0.0, 1.708992574047538E9, 0.0, 2024-02-26 19:09:34.047
46.0, 187500.0, 187500.0, 187500.0, 187500.0, -3070.6155980367184, 187500.0, 187500.0, -182024.6049195057, 0.062, 0.006, 0.978, 192.0, 0.0, 0.0, 0.0, 0.0, 0.0, 0.0, 0.0, 0.0, 0.0, 1.708992574051528E9, 0.0, 2024-02-26 19:09:34.051
47.0, 187500.0, 187500.0, 187500.0, 187500.0, -2998.218297745979, 187500.0, 187500.0, -182151.87575243425, 0.062, 0.006, 0.978, 192.0, 0.0, 0.0, 0.0, 0.0, 0.0, 0.0, 0.0, 0.0, 0.0, 1.708992574055527E9, 0.0, 2024-02-26 19:09:34.055
48.0, 187500.0, 187500.0, 187500.0, 187500.0, -3117.4872061594974, 187500.0, 187500.0, -182075.20926895255, 0.064, 0.002, 0.98, 192.0, 2.0, 0.0, 0.0, 16.0, 30.0, 160.0, 0.0, 0.0, 0.0, 1.708992574059532E9, 0.0, 2024-02-26 19:09:34.059
49.0, 187500.0, 187500.0, 187500.0, 187500.0, -3147.3491367517877, 187500.0, 187500.0, -181997.26873603687, 0.064, 0.002, 0.98, 192.0, 0.0, 0.0, 0.0, 0.0, 0.0, 0.0, 0.0, 0.0, 0.0, 1.708992574064545E9, 0.0, 2024-02-26 19:09:34.064
50.0, 187500.0, 187500.0, 187500.0, 187500.0, -3095.6719035711176, 187500.0, 187500.0, -182011.93148039957, 0.064, 0.002, 0.98, 192.0, 0.0, 0.0, 0.0, 0.0, 0.0, 0.0, 0.0, 0.0, 0.0, 1.708992574068537E9, 0.0, 2024-02-26 19:09:34.068
51.0, 187500.0, 187500.0, 187500.0, 187500.0, -3001.5934111587303, 187500.0, 187500.0, -182126.46181898855, 0.064, 0.002, 0.98, 192.0, 0.0, 0.0, 0.0, 0.0, 0.0, 0.0, 0.0, 0.0, 0.0, 1.708992574072537E9, 0.0, 2024-02-26 19:09:34.072
52.0, 187500.0, 187500.0, 187500.0, 187500.0, -3074.9294847165925, 187500.0, 187500.0, -182098.1421587637, 0.064, 0.002, 0.98, 192.0, 0.0, 0.0, 0.0, 0.0, 0.0, 0.0, 0.0, 0.0, 0.0, 1.708992574075534E9, 0.0, 2024-02-26 19:09:34.075
53.0, 187500.0, 187500.0, 187500.0, 187500.0, -3128.528967920419, 187500.0, 187500.0, -181992.88779412364, 0.064, 0.002, 0.98, 192.0, 0.0, 0.0, 0.0, 0.0, 0.0, 0.0, 0.0, 0.0, 0.0, 1.70899257407953E9, 0.0, 2024-02-26 19:09:34.079
54.0, 187500.0, 187500.0, 187500.0, 187500.0, -3092.9002872586593, 187500.0, 187500.0, -181991.72550341196, 0.064, 0.002, 0.98, 192.0, 0.0, 0.0, 0.0, 0.0, 0.0, 0.0, 0.0, 0.0, 0.0, 1.708992574083526E9, 0.0, 2024-02-26 19:09:34.083
55.0, 187500.0, 187500.0, 187500.0, 187500.0, -3005.92964958306, 187500.0, 187500.0, -182121.76795265294, 0.064, 0.002, 0.98, 192.0, 0.0, 0.0, 0.0, 0.0, 0.0, 0.0, 0.0, 0.0, 0.0, 1.708992574087568E9, 0.0, 2024-02-26 19:09:34.087
56.0, 187500.0, 187500.0, 187500.0, 187500.0, -3075.8682579837155, 187500.0, 187500.0, -182118.37048749573, 0.064, 0.002, 0.98, 192.0, 0.0, 0.0, 0.0, 0.0, 0.0, 0.0, 0.0, 0.0, 0.0, 1.70899257409257E9, 0.0, 2024-02-26 19:09:34.092
57.0, 187500.0, 187500.0, 187500.0, 187500.0, -3160.1790380691336, 187500.0, 187500.0, -182004.9130326406, 0.064, 0.002, 0.98, 192.0, 0.0, 0.0, 0.0, 0.0, 0.0, 0.0, 0.0, 0.0, 0.0, 1.708992574096554E9, 0.0, 2024-02-26 19:09:34.096
58.0, 187500.0, 187500.0, 187500.0, 187500.0, -3134.7651046234496, 187500.0, 187500.0, -181985.33290449774, 0.062, 0.002, 0.98, 192.0, 1.0, 240.0, 0.0, 16.0, 30.0, 160.0, 0.0, 0.0, 0.0, 1.708992574100587E9, 0.0, 2024-02-26 19:09:34.100
59.0, 187500.0, 187500.0, 187500.0, 187500.0, -3054.9917286624586, 187500.0, 187500.0, -182087.83800456978, 0.062, 0.002, 0.98, 192.0, 0.0, 0.0, 0.0, 0.0, 0.0, 0.0, 0.0, 0.0, 0.0, 1.708992574103599E9, 0.0, 2024-02-26 19:09:34.103
60.0, 187500.0, 187500.0, 187500.0, 187500.0, -3086.083005199791, 187500.0, 187500.0, -182127.73586842252, 0.062, 0.002, 0.98, 192.0, 0.0, 0.0, 0.0, 0.0, 0.0, 0.0, 0.0, 0.0, 0.0, 1.708992574107587E9, 0.0, 2024-02-26 19:09:34.107
61.0, 187500.0, 187500.0, 187500.0, 187500.0, -3174.8641341762705, 187500.0, 187500.0, -182022.74972471592, 0.062, 0.002, 0.98, 192.0, 0.0, 0.0, 0.0, 0.0, 0.0, 0.0, 0.0, 0.0, 0.0, 1.708992574111604E9, 0.0, 2024-02-26 19:09:34.111
62.0, 187500.0, 187500.0, 187500.0, 187500.0, -3153.2947007768994, 187500.0, 187500.0, -181987.07634056525, 0.062, 0.002, 0.98, 192.0, 0.0, 0.0, 0.0, 0.0, 0.0, 0.0, 0.0, 0.0, 0.0, 1.708992574117587E9, 0.0, 2024-02-26 19:09:34.117
63.0, 187500.0, 187500.0, 187500.0, 187500.0, -3078.0363771958805, 187500.0, 187500.0, -182069.59898109426, 0.062, 0.002, 0.98, 192.0, 0.0, 0.0, 0.0, 0.0, 0.0, 0.0, 0.0, 0.0, 0.0, 1.708992574121597E9, 0.0, 2024-02-26 19:09:34.121
64.0, 187500.0, 187500.0, 187500.0, 187500.0, -3057.7409932304613, 187500.0, 187500.0, -182155.22851410252, 0.062, 0.002, 0.98, 192.0, 0.0, 0.0, 0.0, 0.0, 0.0, 0.0, 0.0, 0.0, 0.0, 1.708992574124614E9, 0.0, 2024-02-26 19:09:34.124
65.0, 187500.0, 187500.0, 187500.0, 187500.0, -3172.986587642025, 187500.0, 187500.0, -182034.48439055495, 0.062, 0.002, 0.98, 192.0, 0.0, 0.0, 0.0, 0.0, 0.0, 0.0, 0.0, 0.0, 0.0, 1.708992574128611E9, 0.0, 2024-02-26 19:09:34.128
66.0, 187500.0, 187500.0, 187500.0, 187500.0, -3172.7630701974717, 187500.0, 187500.0, -181981.80132887381, 0.062, 0.002, 0.98, 192.0, 0.0, 0.0, 0.0, 0.0, 0.0, 0.0, 0.0, 0.0, 0.0, 1.708992574131587E9, 0.0, 2024-02-26 19:09:34.131
67.0, 187500.0, 187500.0, 187500.0, 187500.0, -3121.555223650363, 187500.0, 187500.0, -182034.50674229942, 0.062, 0.002, 0.98, 192.0, 0.0, 0.0, 0.0, 0.0, 0.0, 0.0, 0.0, 0.0, 0.0, 1.708992574135594E9, 0.0, 2024-02-26 19:09:34.135
68.0, 187500.0, 187500.0, 187500.0, 187500.0, -3054.879969940182, 187500.0, 187500.0, -182157.12841238122, 0.064, 0.008, 0.978, 192.0, 2.0, 0.0, 0.0, 64.0, 30.0, 144.0, 0.0, 0.0, 0.0, 1.708992574139606E9, 0.0, 2024-02-26 19:09:34.139
69.0, 187500.0, 187500.0, 187500.0, 187500.0, -3183.9836459140356, 187500.0, 187500.0, -182051.471716341, 0.064, 0.008, 0.978, 192.0, 0.0, 0.0, 0.0, 0.0, 0.0, 0.0, 0.0, 0.0, 0.0, 1.708992574143636E9, 0.0, 2024-02-26 19:09:34.143
70.0, 187500.0, 187500.0, 187500.0, 187500.0, -3186.777613970949, 187500.0, 187500.0, -181981.39899747362, 0.064, 0.008, 0.978, 192.0, 0.0, 0.0, 0.0, 0.0, 0.0, 0.0, 0.0, 0.0, 0.0, 1.708992574147646E9, 0.0, 2024-02-26 19:09:34.147
71.0, 187500.0, 187500.0, 187500.0, 187500.0, -3137.782590124916, 187500.0, 187500.0, -182007.61759371968, 0.064, 0.008, 0.978, 192.0, 0.0, 0.0, 0.0, 0.0, 0.0, 0.0, 0.0, 0.0, 0.0, 1.708992574152632E9, 0.0, 2024-02-26 19:09:34.152
72.0, 187500.0, 187500.0, 187500.0, 187500.0, -3055.9975571629475, 187500.0, 187500.0, -182142.37626104074, 0.064, 0.008, 0.978, 192.0, 0.0, 0.0, 0.0, 0.0, 0.0, 0.0, 0.0, 0.0, 0.0, 1.708992574156624E9, 0.0, 2024-02-26 19:09:34.156
73.0, 187500.0, 187500.0, 187500.0, 187500.0, -3170.9302271521365, 187500.0, 187500.0, -182071.7671003064, 0.064, 0.008, 0.978, 192.0, 0.0, 0.0, 0.0, 0.0, 0.0, 0.0, 0.0, 0.0, 0.0, 1.708992574159636E9, 0.0, 2024-02-26 19:09:34.159
74.0, 187500.0, 187500.0, 187500.0, 187500.0, -3193.170212885167, 187500.0, 187500.0, -181996.48642498095, 0.064, 0.008, 0.978, 192.0, 0.0, 0.0, 0.0, 0.0, 0.0, 0.0, 0.0, 0.0, 0.0, 1.70899257416363E9, 0.0, 2024-02-26 19:09:34.163
75.0, 187500.0, 187500.0, 187500.0, 187500.0, -3132.373467966732, 187500.0, 187500.0, -182012.13264609966, 0.064, 0.008, 0.978, 192.0, 0.0, 0.0, 0.0, 0.0, 0.0, 0.0, 0.0, 0.0, 0.0, 1.708992574167625E9, 0.0, 2024-02-26 19:09:34.167
76.0, 187500.0, 187500.0, 187500.0, 187500.0, -3046.2521965804335, 187500.0, 187500.0, -182148.7912116994, 0.064, 0.008, 0.978, 192.0, 0.0, 0.0, 0.0, 0.0, 0.0, 0.0, 0.0, 0.0, 0.0, 1.708992574171623E9, 0.0, 2024-02-26 19:09:34.171
77.0, 187500.0, 187500.0, 187500.0, 187500.0, -3141.1577035376677, 187500.0, 187500.0, -182116.4929409615, 0.064, 0.008, 0.978, 192.0, 0.0, 0.0, 0.0, 0.0, 0.0, 0.0, 0.0, 0.0, 0.0, 1.708992574176673E9, 0.0, 2024-02-26 19:09:34.176
78.0, 187500.0, 187500.0, 187500.0, 187500.0, -3215.298439895921, 187500.0, 187500.0, -182009.8080646763, 0.06, 0.004, 0.982, 192.0, 1.0, 224.0, 0.0, 32.0, 30.0, 176.0, 0.0, 0.0, 0.0, 1.708992574180645E9, 0.0, 2024-02-26 19:09:34.180
79.0, 187500.0, 187500.0, 187500.0, 187500.0, -3182.82135520236, 187500.0, 187500.0, -181994.02773309086, 0.06, 0.004, 0.982, 192.0, 0.0, 0.0, 0.0, 0.0, 0.0, 0.0, 0.0, 0.0, 0.0, 1.708992574183645E9, 0.0, 2024-02-26 19:09:34.183
80.0, 187500.0, 187500.0, 187500.0, 187500.0, -3090.1510226906566, 187500.0, 187500.0, -182112.31316474834, 0.06, 0.004, 0.982, 192.0, 0.0, 0.0, 0.0, 0.0, 0.0, 0.0, 0.0, 0.0, 0.0, 1.708992574187634E9, 0.0, 2024-02-26 19:09:34.187
81.0, 187500.0, 187500.0, 187500.0, 187500.0, -3138.6990116475836, 187500.0, 187500.0, -182108.91569959113, 0.06, 0.004, 0.982, 192.0, 0.0, 0.0, 0.0, 0.0, 0.0, 0.0, 0.0, 0.0, 0.0, 1.70899257419163E9, 0.0, 2024-02-26 19:09:34.191
82.0, 187500.0, 187500.0, 187500.0, 187500.0, -3201.06037867789, 187500.0, 187500.0, -182008.1540355866, 0.06, 0.004, 0.982, 192.0, 0.0, 0.0, 0.0, 0.0, 0.0, 0.0, 0.0, 0.0, 0.0, 1.708992574195679E9, 0.0, 2024-02-26 19:09:34.195
83.0, 187500.0, 187500.0, 187500.0, 187500.0, -3154.4122879996644, 187500.0, 187500.0, -181985.08703530874, 0.06, 0.004, 0.982, 192.0, 0.0, 0.0, 0.0, 0.0, 0.0, 0.0, 0.0, 0.0, 0.0, 1.708992574199663E9, 0.0, 2024-02-26 19:09:34.199
84.0, 187500.0, 187500.0, 187500.0, 187500.0, -3059.4173740646097, 187500.0, 187500.0, -182076.215097453, 0.06, 0.004, 0.982, 192.0, 0.0, 0.0, 0.0, 0.0, 0.0, 0.0, 0.0, 0.0, 0.0, 1.70899257420368E9, 0.0, 2024-02-26 19:09:34.203
85.0, 187500.0, 187500.0, 187500.0, 187500.0, -3073.431917838087, 187500.0, 187500.0, -182127.71351667805, 0.06, 0.004, 0.982, 192.0, 0.0, 0.0, 0.0, 0.0, 0.0, 0.0, 0.0, 0.0, 0.0, 1.708992574208684E9, 0.0, 2024-02-26 19:09:34.208
86.0, 187500.0, 187500.0, 187500.0, 187500.0, -3173.7912504424157, 187500.0, 187500.0, -182023.8226084498, 0.06, 0.004, 0.982, 192.0, 0.0, 0.0, 0.0, 0.0, 0.0, 0.0, 0.0, 0.0, 0.0, 1.708992574211685E9, 0.0, 2024-02-26 19:09:34.211
87.0, 187500.0, 187500.0, 187500.0, 187500.0, -3143.772857638938, 187500.0, 187500.0, -181985.53407019784, 0.06, 0.004, 0.982, 192.0, 0.0, 0.0, 0.0, 0.0, 0.0, 0.0, 0.0, 0.0, 0.0, 1.708992574215671E9, 0.0, 2024-02-26 19:09:34.215
88.0, 187500.0, 187500.0, 187500.0, 187500.0, -3057.852751952738, 187500.0, 187500.0, -182063.94398974706, 0.06, 0.0, 0.984, 192.0, 1.0, 224.0, 0.0, 0.0, 30.0, 192.0, 0.0, 0.0, 0.0, 1.70899257421968E9, 0.0, 2024-02-26 19:09:34.219
89.0, 187500.0, 187500.0, 187500.0, 187500.0, -3019.7653794008947, 187500.0, 187500.0, -182149.81939194436, 0.06, 0.0, 0.984, 192.0, 0.0, 0.0, 0.0, 0.0, 0.0, 0.0, 0.0, 0.0, 0.0, 1.708992574223674E9, 0.0, 2024-02-26 19:09:34.223
90.0, 187500.0, 187500.0, 187500.0, 187500.0, -3142.81173262736, 187500.0, 187500.0, -182037.85950396772, 0.06, 0.0, 0.984, 192.0, 0.0, 0.0, 0.0, 0.0, 0.0, 0.0, 0.0, 0.0, 0.0, 1.708992574227714E9, 0.0, 2024-02-26 19:09:34.227
91.0, 187500.0, 187500.0, 187500.0, 187500.0, -3151.1265815647344, 187500.0, 187500.0, -182003.03548610635, 0.06, 0.0, 0.984, 192.0, 0.0, 0.0, 0.0, 0.0, 0.0, 0.0, 0.0, 0.0, 0.0, 1.708992574231717E9, 0.0, 2024-02-26 19:09:34.231
92.0, 187500.0, 187500.0, 187500.0, 187500.0, -3086.5970953222627, 187500.0, 187500.0, -182053.72924253097, 0.06, 0.0, 0.984, 192.0, 0.0, 0.0, 0.0, 0.0, 0.0, 0.0, 0.0, 0.0, 0.0, 1.708992574236713E9, 0.0, 2024-02-26 19:09:34.236
93.0, 187500.0, 187500.0, 187500.0, 187500.0, -3025.3309637702664, 187500.0, 187500.0, -182185.29161039492, 0.06, 0.0, 0.984, 192.0, 0.0, 0.0, 0.0, 0.0, 0.0, 0.0, 0.0, 0.0, 0.0, 1.708992574239725E9, 0.0, 2024-02-26 19:09:34.239
94.0, 187500.0, 187500.0, 187500.0, 187500.0, -3149.271386774944, 187500.0, 187500.0, -182074.94104801907, 0.06, 0.0, 0.984, 192.0, 0.0, 0.0, 0.0, 0.0, 0.0, 0.0, 0.0, 0.0, 0.0, 1.708992574243716E9, 0.0, 2024-02-26 19:09:34.243
95.0, 187500.0, 187500.0, 187500.0, 187500.0, -3159.9555206245805, 187500.0, 187500.0, -181980.57198292876, 0.06, 0.0, 0.984, 192.0, 0.0, 0.0, 0.0, 0.0, 0.0, 0.0, 0.0, 0.0, 0.0, 1.708992574247722E9, 0.0, 2024-02-26 19:09:34.247
96.0, 187500.0, 187500.0, 187500.0, 187500.0, -3105.4396158980867, 187500.0, 187500.0, -182013.3619920447, 0.06, 0.0, 0.984, 192.0, 0.0, 0.0, 0.0, 0.0, 0.0, 0.0, 0.0, 0.0, 0.0, 1.708992574251709E9, 0.0, 2024-02-26 19:09:34.251
97.0, 187500.0, 187500.0, 187500.0, 187500.0, -3022.2017195465232, 187500.0, 187500.0, -182143.5385517524, 0.066, -0.002, 0.982, 192.0, 2.0, 16.0, 255.0, 240.0, 30.0, 176.0, 0.0, 0.0, 0.0, 1.708992574257708E9, 0.0, 2024-02-26 19:09:34.257
98.0, 187500.0, 187500.0, 187500.0, 187500.0, -3127.6348981422066, 187500.0, 187500.0, -182080.26076319945, 0.066, -0.002, 0.982, 192.0, 0.0, 0.0, 0.0, 0.0, 0.0, 0.0, 0.0, 0.0, 0.0, 1.708992574260707E9, 0.0, 2024-02-26 19:09:34.260
99.0, 187500.0, 187500.0, 187500.0, 187500.0, -3164.917607893659, 187500.0, 187500.0, -181994.69828542453, 0.066, -0.002, 0.982, 192.0, 0.0, 0.0, 0.0, 0.0, 0.0, 0.0, 0.0, 0.0, 0.0, 1.708992574264723E9, 0.0, 2024-02-26 19:09:34.264
100.0, 187500.0, 187500.0, 187500.0, 187500.0, -3136.6426511576956, 187500.0, 187500.0, -181993.31247726828, 0.066, -0.002, 0.982, 192.0, 0.0, 0.0, 0.0, 0.0, 0.0, 0.0, 0.0, 0.0, 0.0, 1.708992574267707E9, 0.0, 2024-02-26 19:09:34.267
101.0, 187500.0, 187500.0, 187500.0, 187500.0, -3026.269737037389, 187500.0, 187500.0, -182134.19552257008, 0.066, -0.002, 0.982, 192.0, 0.0, 0.0, 0.0, 0.0, 0.0, 0.0, 0.0, 0.0, 0.0, 1.708992574271709E9, 0.0, 2024-02-26 19:09:34.271
102.0, 187500.0, 187500.0, 187500.0, 187500.0, -3074.057766682836, 187500.0, 187500.0, -182116.82821712832, 0.066, -0.002, 0.982, 192.0, 0.0, 0.0, 0.0, 0.0, 0.0, 0.0, 0.0, 0.0, 0.0, 1.708992574275749E9, 0.0, 2024-02-26 19:09:34.275
103.0, 187500.0, 187500.0, 187500.0, 187500.0, -3142.81173262736, 187500.0, 187500.0, -182003.2590035509, 0.066, -0.002, 0.982, 192.0, 0.0, 0.0, 0.0, 0.0, 0.0, 0.0, 0.0, 0.0, 0.0, 1.708992574279756E9, 0.0, 2024-02-26 19:09:34.279
104.0, 187500.0, 187500.0, 187500.0, 187500.0, -3107.652438599162, 187500.0, 187500.0, -182011.0597623658, 0.066, -0.002, 0.982, 192.0, 0.0, 0.0, 0.0, 0.0, 0.0, 0.0, 0.0, 0.0, 0.0, 1.708992574283747E9, 0.0, 2024-02-26 19:09:34.283
105.0, 187500.0, 187500.0, 187500.0, 187500.0, -3003.1580332706017, 187500.0, 187500.0, -182124.83014164332, 0.066, -0.002, 0.982, 192.0, 0.0, 0.0, 0.0, 0.0, 0.0, 0.0, 0.0, 0.0, 0.0, 1.708992574287751E9, 0.0, 2024-02-26 19:09:34.287
106.0, 187500.0, 187500.0, 187500.0, 187500.0, -3045.916920413604, 187500.0, 187500.0, -182136.74362143798, 0.066, -0.002, 0.982, 192.0, 0.0, 0.0, 0.0, 0.0, 0.0, 0.0, 0.0, 0.0, 0.0, 1.70899257429176E9, 0.0, 2024-02-26 19:09:34.291
107.0, 187500.0, 187500.0, 187500.0, 187500.0, -3131.8370260998045, 187500.0, 187500.0, -182001.62732620566, 0.062, -0.002, 0.98, 192.0, 1.0, 240.0, 255.0, 240.0, 30.0, 160.0, 0.0, 0.0, 0.0, 1.708992574294752E9, 0.0, 2024-02-26 19:09:34.294
108.0, 187500.0, 187500.0, 187500.0, 187500.0, -3094.0625779703355, 187500.0, 187500.0, -181980.12494803965, 0.062, -0.002, 0.98, 192.0, 0.0, 0.0, 0.0, 0.0, 0.0, 0.0, 0.0, 0.0, 0.0, 1.708992574299769E9, 0.0, 2024-02-26 19:09:34.299
109.0, 187500.0, 187500.0, 187500.0, 187500.0, -3002.4204257035767, 187500.0, 187500.0, -182087.0333417694, 0.062, -0.002, 0.98, 192.0, 0.0, 0.0, 0.0, 0.0, 0.0, 0.0, 0.0, 0.0, 0.0, 1.708992574303756E9, 0.0, 2024-02-26 19:09:34.303
110.0, 187500.0, 187500.0, 187500.0, 187500.0, -3032.036487106858, 187500.0, 187500.0, -182127.02061259994, 0.062, -0.002, 0.98, 192.0, 0.0, 0.0, 0.0, 0.0, 0.0, 0.0, 0.0, 0.0, 0.0, 1.708992574307759E9, 0.0, 2024-02-26 19:09:34.307
111.0, 187500.0, 187500.0, 187500.0, 187500.0, -3148.936110608114, 187500.0, 187500.0, -182015.32894555677, 0.062, -0.002, 0.98, 192.0, 0.0, 0.0, 0.0, 0.0, 0.0, 0.0, 0.0, 0.0, 0.0, 1.708992574311763E9, 0.0, 2024-02-26 19:09:34.311
112.0, 187500.0, 187500.0, 187500.0, 187500.0, -3122.941031806592, 187500.0, 187500.0, -181973.86645959216, 0.062, -0.002, 0.98, 192.0, 0.0, 0.0, 0.0, 0.0, 0.0, 0.0, 0.0, 0.0, 0.0, 1.708992574315789E9, 0.0, 2024-02-26 19:09:34.315
113.0, 187500.0, 187500.0, 187500.0, 187500.0, -3050.208455349023, 187500.0, 187500.0, -182044.7214895155, 0.062, -0.002, 0.98, 192.0, 0.0, 0.0, 0.0, 0.0, 0.0, 0.0, 0.0, 0.0, 0.0, 1.708992574319796E9, 0.0, 2024-02-26 19:09:34.319
114.0, 187500.0, 187500.0, 187500.0, 187500.0, -3026.247385292934, 187500.0, 187500.0, -182143.82912443034, 0.062, -0.002, 0.98, 192.0, 0.0, 0.0, 0.0, 0.0, 0.0, 0.0, 0.0, 0.0, 0.0, 1.708992574322793E9, 0.0, 2024-02-26 19:09:34.322
115.0, 187500.0, 187500.0, 187500.0, 187500.0, -3156.982738612025, 187500.0, 187500.0, -182033.3220998433, 0.062, -0.002, 0.98, 192.0, 0.0, 0.0, 0.0, 0.0, 0.0, 0.0, 0.0, 0.0, 0.0, 1.708992574326786E9, 0.0, 2024-02-26 19:09:34.326
116.0, 187500.0, 187500.0, 187500.0, 187500.0, -3153.115886821257, 187500.0, 187500.0, -181985.01998007536, 0.062, -0.002, 0.98, 192.0, 0.0, 0.0, 0.0, 0.0, 0.0, 0.0, 0.0, 0.0, 0.0, 1.708992574331795E9, 0.0, 2024-02-26 19:09:34.331
117.0, 187500.0, 187500.0, 187500.0, 187500.0, -3090.7768715354055, 187500.0, 187500.0, -182032.09275389824, 0.066, -0.006, 0.984, 192.0, 2.0, 16.0, 255.0, 208.0, 30.0, 192.0, 0.0, 0.0, 0.0, 1.708992574335788E9, 0.0, 2024-02-26 19:09:34.335
118.0, 187500.0, 187500.0, 187500.0, 187500.0, -3028.0355248493584, 187500.0, 187500.0, -182161.06231940538, 0.066, -0.006, 0.984, 192.0, 0.0, 0.0, 0.0, 0.0, 0.0, 0.0, 0.0, 0.0, 0.0, 1.708992574339848E9, 0.0, 2024-02-26 19:09:34.339
119.0, 187500.0, 187500.0, 187500.0, 187500.0, -3153.473514732542, 187500.0, 187500.0, -182065.68742581457, 0.066, -0.006, 0.984, 192.0, 0.0, 0.0, 0.0, 0.0, 0.0, 0.0, 0.0, 0.0, 0.0, 1.708992574343814E9, 0.0, 2024-02-26 19:09:34.343
120.0, 187500.0, 187500.0, 187500.0, 187500.0, -3161.654253203184, 187500.0, 187500.0, -181979.23087826144, 0.066, -0.006, 0.984, 192.0, 0.0, 0.0, 0.0, 0.0, 0.0, 0.0, 0.0, 0.0, 0.0, 1.708992574347814E9, 0.0, 2024-02-26 19:09:34.347
121.0, 187500.0, 187500.0, 187500.0, 187500.0, -3115.0285142694133, 187500.0, 187500.0, -182006.38824777465, 0.066, -0.006, 0.984, 192.0, 0.0, 0.0, 0.0, 0.0, 0.0, 0.0, 0.0, 0.0, 0.0, 1.708992574350854E9, 0.0, 2024-02-26 19:09:34.350
122.0, 187500.0, 187500.0, 187500.0, 187500.0, -3017.105521810713, 187500.0, 187500.0, -182152.45689779008, 0.066, -0.006, 0.984, 192.0, 0.0, 0.0, 0.0, 0.0, 0.0, 0.0, 0.0, 0.0, 0.0, 1.70899257435485E9, 0.0, 2024-02-26 19:09:34.354
123.0, 187500.0, 187500.0, 187500.0, 187500.0, -3119.632973627207, 187500.0, 187500.0, -182088.6203156257, 0.066, -0.006, 0.984, 192.0, 0.0, 0.0, 0.0, 0.0, 0.0, 0.0, 0.0, 0.0, 0.0, 1.708992574359838E9, 0.0, 2024-02-26 19:09:34.359
124.0, 187500.0, 187500.0, 187500.0, 187500.0, -3160.648424702695, 187500.0, 187500.0, -181985.31055275328, 0.066, -0.006, 0.984, 192.0, 0.0, 0.0, 0.0, 0.0, 0.0, 0.0, 0.0, 0.0, 0.0, 1.708992574363836E9, 0.0, 2024-02-26 19:09:34.363
125.0, 187500.0, 187500.0, 187500.0, 187500.0, -3129.8030173543716, 187500.0, 187500.0, -181985.7575876424, 0.066, -0.006, 0.984, 192.0, 0.0, 0.0, 0.0, 0.0, 0.0, 0.0, 0.0, 0.0, 0.0, 1.708992574367833E9, 0.0, 2024-02-26 19:09:34.367
126.0, 187500.0, 187500.0, 187500.0, 187500.0, -3045.179312846579, 187500.0, 187500.0, -182114.8836153607, 0.066, -0.006, 0.984, 192.0, 0.0, 0.0, 0.0, 0.0, 0.0, 0.0, 0.0, 0.0, 0.0, 1.708992574371831E9, 0.0, 2024-02-26 19:09:34.371
127.0, 187500.0, 187500.0, 187500.0, 187500.0, -3131.7029156330727, 187500.0, 187500.0, -182097.69512387458, 0.062, 0.0, 0.982, 192.0, 1.0, 240.0, 0.0, 0.0, 30.0, 176.0, 0.0, 0.0, 0.0, 1.708992574374832E9, 0.0, 2024-02-26 19:09:34.374
128.0, 187500.0, 187500.0, 187500.0, 187500.0, -3204.5025473240075, 187500.0, 187500.0, -182000.5097389829, 0.062, 0.0, 0.982, 192.0, 0.0, 0.0, 0.0, 0.0, 0.0, 0.0, 0.0, 0.0, 0.0, 1.708992574378833E9, 0.0, 2024-02-26 19:09:34.378
129.0, 187500.0, 187500.0, 187500.0, 187500.0, -3180.563829012374, 187500.0, 187500.0, -181992.12783481216, 0.062, 0.0, 0.982, 192.0, 0.0, 0.0, 0.0, 0.0, 0.0, 0.0, 0.0, 0.0, 0.0, 1.708992574382833E9, 0.0, 2024-02-26 19:09:34.382
130.0, 187500.0, 187500.0, 187500.0, 187500.0, -3073.8566009827377, 187500.0, 187500.0, -182121.87971137522, 0.062, 0.0, 0.982, 192.0, 0.0, 0.0, 0.0, 0.0, 0.0, 0.0, 0.0, 0.0, 0.0, 1.708992574387854E9, 0.0, 2024-02-26 19:09:34.387
131.0, 187500.0, 187500.0, 187500.0, 187500.0, -3106.7807205654053, 187500.0, 187500.0, -182152.65806349018, 0.062, 0.0, 0.982, 192.0, 0.0, 0.0, 0.0, 0.0, 0.0, 0.0, 0.0, 0.0, 0.0, 1.70899257439184E9, 0.0, 2024-02-26 19:09:34.391
132.0, 187500.0, 187500.0, 187500.0, 187500.0, -3210.0234282044685, 187500.0, 187500.0, -182013.3619920447, 0.062, 0.0, 0.982, 192.0, 0.0, 0.0, 0.0, 0.0, 0.0, 0.0, 0.0, 0.0, 0.0, 1.708992574395893E9, 0.0, 2024-02-26 19:09:34.395
133.0, 187500.0, 187500.0, 187500.0, 187500.0, -3192.522012295963, 187500.0, 187500.0, -181976.32515148225, 0.062, 0.0, 0.982, 192.0, 0.0, 0.0, 0.0, 0.0, 0.0, 0.0, 0.0, 0.0, 0.0, 1.708992574399882E9, 0.0, 2024-02-26 19:09:34.399
134.0, 187500.0, 187500.0, 187500.0, 187500.0, -3114.2909067023884, 187500.0, 187500.0, -182069.73309156098, 0.062, 0.0, 0.982, 192.0, 0.0, 0.0, 0.0, 0.0, 0.0, 0.0, 0.0, 0.0, 0.0, 1.708992574402875E9, 0.0, 2024-02-26 19:09:34.402
135.0, 187500.0, 187500.0, 187500.0, 187500.0, -3124.0362672849024, 187500.0, 187500.0, -182125.67950793263, 0.062, 0.0, 0.982, 192.0, 0.0, 0.0, 0.0, 0.0, 0.0, 0.0, 0.0, 0.0, 0.0, 1.708992574406881E9, 0.0, 2024-02-26 19:09:34.406
136.0, 187500.0, 187500.0, 187500.0, 187500.0, -3224.1497307002223, 187500.0, 187500.0, -182009.74100944295, 0.062, 0.0, 0.982, 192.0, 0.0, 0.0, 0.0, 0.0, 0.0, 0.0, 0.0, 0.0, 0.0, 1.708992574410891E9, 0.0, 2024-02-26 19:09:34.410
137.0, 187500.0, 187500.0, 187500.0, 187500.0, -3180.5414772679187, 187500.0, 187500.0, -181977.19686951602, 0.06, 0.0, 0.982, 192.0, 1.0, 224.0, 0.0, 0.0, 30.0, 176.0, 0.0, 0.0, 0.0, 1.708992574414894E9, 0.0, 2024-02-26 19:09:34.414
138.0, 187500.0, 187500.0, 187500.0, 187500.0, -3104.1879182085895, 187500.0, 187500.0, -182042.73218425896, 0.06, 0.0, 0.982, 192.0, 0.0, 0.0, 0.0, 0.0, 0.0, 0.0, 0.0, 0.0, 0.0, 1.708992574419892E9, 0.0, 2024-02-26 19:09:34.419
139.0, 187500.0, 187500.0, 187500.0, 187500.0, -3067.1287259016904, 187500.0, 187500.0, -182134.75431618147, 0.06, 0.0, 0.982, 192.0, 0.0, 0.0, 0.0, 0.0, 0.0, 0.0, 0.0, 0.0, 0.0, 1.708992574423892E9, 0.0, 2024-02-26 19:09:34.423
140.0, 187500.0, 187500.0, 187500.0, 187500.0, -3192.365550084776, 187500.0, 187500.0, -182034.3726318327, 0.06, 0.0, 0.982, 192.0, 0.0, 0.0, 0.0, 0.0, 0.0, 0.0, 0.0, 0.0, 0.0, 1.708992574426883E9, 0.0, 2024-02-26 19:09:34.426
141.0, 187500.0, 187500.0, 187500.0, 187500.0, -3185.4812127925416, 187500.0, 187500.0, -181992.53016621235, 0.06, 0.0, 0.982, 192.0, 0.0, 0.0, 0.0, 0.0, 0.0, 0.0, 0.0, 0.0, 0.0, 1.708992574430884E9, 0.0, 2024-02-26 19:09:34.430
142.0, 187500.0, 187500.0, 187500.0, 187500.0, -3116.7943020813827, 187500.0, 187500.0, -182023.0626491383, 0.06, 0.0, 0.982, 192.0, 0.0, 0.0, 0.0, 0.0, 0.0, 0.0, 0.0, 0.0, 0.0, 1.708992574434949E9, 0.0, 2024-02-26 19:09:34.434
143.0, 187500.0, 187500.0, 187500.0, 187500.0, -3037.847940665238, 187500.0, 187500.0, -182143.87382791925, 0.06, 0.0, 0.982, 192.0, 0.0, 0.0, 0.0, 0.0, 0.0, 0.0, 0.0, 0.0, 0.0, 1.70899257443894E9, 0.0, 2024-02-26 19:09:34.438
144.0, 187500.0, 187500.0, 187500.0, 187500.0, -3140.688316904106, 187500.0, 187500.0, -182057.84196351076, 0.06, 0.0, 0.982, 192.0, 0.0, 0.0, 0.0, 0.0, 0.0, 0.0, 0.0, 0.0, 0.0, 1.708992574444176E9, 0.0, 2024-02-26 19:09:34.444
145.0, 187500.0, 187500.0, 187500.0, 187500.0, -3158.9943956130023, 187500.0, 187500.0, -181987.43396847654, 0.06, 0.0, 0.982, 192.0, 0.0, 0.0, 0.0, 0.0, 0.0, 0.0, 0.0, 0.0, 0.0, 1.708992574447938E9, 0.0, 2024-02-26 19:09:34.447
146.0, 187500.0, 187500.0, 187500.0, 187500.0, -3124.460950429553, 187500.0, 187500.0, -182012.3114600553, 0.06, 0.0, 0.982, 192.0, 0.0, 0.0, 0.0, 0.0, 0.0, 0.0, 0.0, 0.0, 0.0, 1.708992574452923E9, 0.0, 2024-02-26 19:09:34.452
147.0, 187500.0, 187500.0, 187500.0, 187500.0, -3038.250272065434, 187500.0, 187500.0, -182155.92141818066, 0.062, 0.002, 0.976, 192.0, 1.0, 240.0, 0.0, 16.0, 30.0, 128.0, 0.0, 0.0, 0.0, 1.708992574456925E9, 0.0, 2024-02-26 19:09:34.456
148.0, 187500.0, 187500.0, 187500.0, 187500.0, -3150.165456553156, 187500.0, 187500.0, -182097.6280686412, 0.062, 0.002, 0.976, 192.0, 0.0, 0.0, 0.0, 0.0, 0.0, 0.0, 0.0, 0.0, 0.0, 1.70899257445994E9, 0.0, 2024-02-26 19:09:34.459
149.0, 187500.0, 187500.0, 187500.0, 187500.0, -3200.389826344231, 187500.0, 187500.0, -181987.34456149873, 0.062, 0.002, 0.976, 192.0, 0.0, 0.0, 0.0, 0.0, 0.0, 0.0, 0.0, 0.0, 0.0, 1.708992574462935E9, 0.0, 2024-02-26 19:09:34.462
150.0, 187500.0, 187500.0, 187500.0, 187500.0, -3149.33844200831, 187500.0, 187500.0, -181985.19879403102, 0.062, 0.002, 0.976, 192.0, 0.0, 0.0, 0.0, 0.0, 0.0, 0.0, 0.0, 0.0, 0.0, 1.708992574466931E9, 0.0, 2024-02-26 19:09:34.466
151.0, 187500.0, 187500.0, 187500.0, 187500.0, -3042.9217866565928, 187500.0, 187500.0, -182116.7388101505, 0.062, 0.002, 0.976, 192.0, 0.0, 0.0, 0.0, 0.0, 0.0, 0.0, 0.0, 0.0, 0.0, 1.708992574470976E9, 0.0, 2024-02-26 19:09:34.470
152.0, 187500.0, 187500.0, 187500.0, 187500.0, -3115.3190869473324, 187500.0, 187500.0, -182089.20146098157, 0.062, 0.002, 0.976, 192.0, 0.0, 0.0, 0.0, 0.0, 0.0, 0.0, 0.0, 0.0, 0.0, 1.708992574475966E9, 0.0, 2024-02-26 19:09:34.475
153.0, 187500.0, 187500.0, 187500.0, 187500.0, -3173.657139975684, 187500.0, 187500.0, -181992.39605574563, 0.062, 0.002, 0.976, 192.0, 0.0, 0.0, 0.0, 0.0, 0.0, 0.0, 0.0, 0.0, 0.0, 1.708992574479969E9, 0.0, 2024-02-26 19:09:34.479
154.0, 187500.0, 187500.0, 187500.0, 187500.0, -3127.791360353394, 187500.0, 187500.0, -181995.92763136956, 0.062, 0.002, 0.976, 192.0, 0.0, 0.0, 0.0, 0.0, 0.0, 0.0, 0.0, 0.0, 0.0, 1.708992574482972E9, 0.0, 2024-02-26 19:09:34.482
155.0, 187500.0, 187500.0, 187500.0, 187500.0, -3009.4165217180876, 187500.0, 187500.0, -182124.78543815442, 0.062, 0.002, 0.976, 192.0, 0.0, 0.0, 0.0, 0.0, 0.0, 0.0, 0.0, 0.0, 0.0, 1.708992574486964E9, 0.0, 2024-02-26 19:09:34.486
156.0, 187500.0, 187500.0, 187500.0, 187500.0, -3048.017984392403, 187500.0, 187500.0, -182131.60272021327, 0.062, 0.002, 0.976, 192.0, 0.0, 0.0, 0.0, 0.0, 0.0, 0.0, 0.0, 0.0, 0.0, 1.708992574490967E9, 0.0, 2024-02-26 19:09:34.490
157.0, 187500.0, 187500.0, 187500.0, 187500.0, -3126.0255725414245, 187500.0, 187500.0, -182005.62828846317, 0.068, 0.0, 0.98, 192.0, 2.0, 32.0, 0.0, 0.0, 30.0, 160.0, 0.0, 0.0, 0.0, 1.708992574494974E9, 0.0, 2024-02-26 19:09:34.494
158.0, 187500.0, 187500.0, 187500.0, 187500.0, -3101.8633367852376, 187500.0, 187500.0, -181972.97238981395, 0.068, 0.0, 0.98, 192.0, 0.0, 0.0, 0.0, 0.0, 0.0, 0.0, 0.0, 0.0, 0.0, 1.708992574498963E9, 0.0, 2024-02-26 19:09:34.498
159.0, 187500.0, 187500.0, 187500.0, 187500.0, -3011.763454885895, 187500.0, 187500.0, -182061.01591122343, 0.068, 0.0, 0.98, 192.0, 0.0, 0.0, 0.0, 0.0, 0.0, 0.0, 0.0, 0.0, 0.0, 1.708992574503969E9, 0.0, 2024-02-26 19:09:34.503
160.0, 187500.0, 187500.0, 187500.0, 187500.0, -3005.6167251606853, 187500.0, 187500.0, -182141.4821912625, 0.068, 0.0, 0.98, 192.0, 0.0, 0.0, 0.0, 0.0, 0.0, 0.0, 0.0, 0.0, 0.0, 1.708992574507966E9, 0.0, 2024-02-26 19:09:34.507
161.0, 187500.0, 187500.0, 187500.0, 187500.0, -3127.4113806976534, 187500.0, 187500.0, -182028.29295734083, 0.068, 0.0, 0.98, 192.0, 0.0, 0.0, 0.0, 0.0, 0.0, 0.0, 0.0, 0.0, 0.0, 1.708992574511969E9, 0.0, 2024-02-26 19:09:34.511
162.0, 187500.0, 187500.0, 187500.0, 187500.0, -3120.7058573610616, 187500.0, 187500.0, -181981.19783177352, 0.068, 0.0, 0.98, 192.0, 0.0, 0.0, 0.0, 0.0, 0.0, 0.0, 0.0, 0.0, 0.0, 1.708992574514972E9, 0.0, 2024-02-26 19:09:34.514
163.0, 187500.0, 187500.0, 187500.0, 187500.0, -3049.5826065042743, 187500.0, 187500.0, -182046.39787034964, 0.068, 0.0, 0.98, 192.0, 0.0, 0.0, 0.0, 0.0, 0.0, 0.0, 0.0, 0.0, 0.0, 1.708992574519051E9, 0.0, 2024-02-26 19:09:34.519
164.0, 187500.0, 187500.0, 187500.0, 187500.0, -3000.140547769135, 187500.0, 187500.0, -182159.52004903796, 0.068, 0.0, 0.98, 192.0, 0.0, 0.0, 0.0, 0.0, 0.0, 0.0, 0.0, 0.0, 0.0, 1.708992574523034E9, 0.0, 2024-02-26 19:09:34.523
165.0, 187500.0, 187500.0, 187500.0, 187500.0, -3122.6951626175837, 187500.0, 187500.0, -182042.7768877479, 0.068, 0.0, 0.98, 192.0, 0.0, 0.0, 0.0, 0.0, 0.0, 0.0, 0.0, 0.0, 0.0, 1.708992574527026E9, 0.0, 2024-02-26 19:09:34.527
166.0, 187500.0, 187500.0, 187500.0, 187500.0, -3117.71072360405, 187500.0, 187500.0, -181979.32028523926, 0.068, 0.0, 0.98, 192.0, 0.0, 0.0, 0.0, 0.0, 0.0, 0.0, 0.0, 0.0, 0.0, 1.708992574533026E9, 0.0, 2024-02-26 19:09:34.533
167.0, 187500.0, 187500.0, 187500.0, 187500.0, -3058.143324630657, 187500.0, 187500.0, -182026.92950092908, 0.062, -0.002, 0.972, 192.0, 1.0, 240.0, 255.0, 240.0, 30.0, 96.0, 0.0, 0.0, 0.0, 1.708992574536022E9, 0.0, 2024-02-26 19:09:34.536
168.0, 187500.0, 187500.0, 187500.0, 187500.0, -2983.309684194289, 187500.0, 187500.0, -182158.6036275153, 0.062, -0.002, 0.972, 192.0, 0.0, 0.0, 0.0, 0.0, 0.0, 0.0, 0.0, 0.0, 0.0, 1.708992574540012E9, 0.0, 2024-02-26 19:09:34.540
169.0, 187500.0, 187500.0, 187500.0, 187500.0, -3091.6709413136177, 187500.0, 187500.0, -182071.45417588405, 0.062, -0.002, 0.972, 192.0, 0.0, 0.0, 0.0, 0.0, 0.0, 0.0, 0.0, 0.0, 0.0, 1.708992574543022E9, 0.0, 2024-02-26 19:09:34.543
170.0, 187500.0, 187500.0, 187500.0, 187500.0, -3117.5319096484077, 187500.0, 187500.0, -181984.97527658645, 0.062, -0.002, 0.972, 192.0, 0.0, 0.0, 0.0, 0.0, 0.0, 0.0, 0.0, 0.0, 0.0, 1.70899257454702E9, 0.0, 2024-02-26 19:09:34.547
171.0, 187500.0, 187500.0, 187500.0, 187500.0, -3075.1977056500564, 187500.0, 187500.0, -182010.07628560977, 0.062, -0.002, 0.972, 192.0, 0.0, 0.0, 0.0, 0.0, 0.0, 0.0, 0.0, 0.0, 0.0, 1.708992574551018E9, 0.0, 2024-02-26 19:09:34.551
172.0, 187500.0, 187500.0, 187500.0, 187500.0, -2997.435986690043, 187500.0, 187500.0, -182141.16926684015, 0.062, -0.002, 0.972, 192.0, 0.0, 0.0, 0.0, 0.0, 0.0, 0.0, 0.0, 0.0, 0.0, 1.708992574555012E9, 0.0, 2024-02-26 19:09:34.555
173.0, 187500.0, 187500.0, 187500.0, 187500.0, -3098.242354183478, 187500.0, 187500.0, -182093.1353680057, 0.062, -0.002, 0.972, 192.0, 0.0, 0.0, 0.0, 0.0, 0.0, 0.0, 0.0, 0.0, 0.0, 1.708992574560065E9, 0.0, 2024-02-26 19:09:34.560
174.0, 187500.0, 187500.0, 187500.0, 187500.0, -3153.2499972879887, 187500.0, 187500.0, -181993.17836680156, 0.062, -0.002, 0.972, 192.0, 0.0, 0.0, 0.0, 0.0, 0.0, 0.0, 0.0, 0.0, 0.0, 1.708992574563061E9, 0.0, 2024-02-26 19:09:34.563
175.0, 187500.0, 187500.0, 187500.0, 187500.0, -3139.749543636983, 187500.0, 187500.0, -181991.81491038977, 0.062, -0.002, 0.972, 192.0, 0.0, 0.0, 0.0, 0.0, 0.0, 0.0, 0.0, 0.0, 0.0, 1.708992574567054E9, 0.0, 2024-02-26 19:09:34.567
176.0, 187500.0, 187500.0, 187500.0, 187500.0, -3027.7449521714393, 187500.0, 187500.0, -182139.71640345055, 0.062, -0.002, 0.972, 192.0, 0.0, 0.0, 0.0, 0.0, 0.0, 0.0, 0.0, 0.0, 0.0, 1.708992574571042E9, 0.0, 2024-02-26 19:09:34.571
177.0, 187500.0, 187500.0, 187500.0, 187500.0, -3086.5076883444417, 187500.0, 187500.0, -182143.51620000796, 0.062, 0.0, 0.984, 192.0, 1.0, 240.0, 0.0, 0.0, 30.0, 192.0, 0.0, 0.0, 0.0, 1.708992574575035E9, 0.0, 2024-02-26 19:09:34.575
178.0, 187500.0, 187500.0, 187500.0, 187500.0, -3168.0468521174016, 187500.0, 187500.0, -182008.3999047756, 0.062, 0.0, 0.984, 192.0, 0.0, 0.0, 0.0, 0.0, 0.0, 0.0, 0.0, 0.0, 0.0, 1.708992574579037E9, 0.0, 2024-02-26 19:09:34.579
179.0, 187500.0, 187500.0, 187500.0, 187500.0, -3135.614470912751, 187500.0, 187500.0, -181989.95971559998, 0.062, 0.0, 0.984, 192.0, 0.0, 0.0, 0.0, 0.0, 0.0, 0.0, 0.0, 0.0, 0.0, 1.708992574583037E9, 0.0, 2024-02-26 19:09:34.583
180.0, 187500.0, 187500.0, 187500.0, 187500.0, -3029.98012661697, 187500.0, 187500.0, -182109.11686529123, 0.062, 0.0, 0.984, 192.0, 0.0, 0.0, 0.0, 0.0, 0.0, 0.0, 0.0, 0.0, 0.0, 1.708992574588049E9, 0.0, 2024-02-26 19:09:34.588
181.0, 187500.0, 187500.0, 187500.0, 187500.0, -3035.970394130992, 187500.0, 187500.0, -182162.11285139478, 0.062, 0.0, 0.984, 192.0, 0.0, 0.0, 0.0, 0.0, 0.0, 0.0, 0.0, 0.0, 0.0, 1.708992574591036E9, 0.0, 2024-02-26 19:09:34.591
182.0, 187500.0, 187500.0, 187500.0, 187500.0, -3151.5736164538407, 187500.0, 187500.0, -182016.98297464647, 0.062, 0.0, 0.984, 192.0, 0.0, 0.0, 0.0, 0.0, 0.0, 0.0, 0.0, 0.0, 0.0, 1.708992574594058E9, 0.0, 2024-02-26 19:09:34.594
183.0, 187500.0, 187500.0, 187500.0, 187500.0, -3162.973006126047, 187500.0, 187500.0, -181998.49808198193, 0.062, 0.0, 0.984, 192.0, 0.0, 0.0, 0.0, 0.0, 0.0, 0.0, 0.0, 0.0, 0.0, 1.708992574599085E9, 0.0, 2024-02-26 19:09:34.599
184.0, 187500.0, 187500.0, 187500.0, 187500.0, -3083.0878714427795, 187500.0, 187500.0, -182107.3287257348, 0.062, 0.0, 0.984, 192.0, 0.0, 0.0, 0.0, 0.0, 0.0, 0.0, 0.0, 0.0, 0.0, 1.708992574603082E9, 0.0, 2024-02-26 19:09:34.603
185.0, 187500.0, 187500.0, 187500.0, 187500.0, -3077.4552318400424, 187500.0, 187500.0, -182179.16723241415, 0.062, 0.0, 0.984, 192.0, 0.0, 0.0, 0.0, 0.0, 0.0, 0.0, 0.0, 0.0, 0.0, 1.708992574607089E9, 0.0, 2024-02-26 19:09:34.607
186.0, 187500.0, 187500.0, 187500.0, 187500.0, -3189.0798436498458, 187500.0, 187500.0, -182036.85367546722, 0.06, 0.002, 0.98, 192.0, 1.0, 224.0, 0.0, 16.0, 30.0, 160.0, 0.0, 0.0, 0.0, 1.708992574611082E9, 0.0, 2024-02-26 19:09:34.611
187.0, 187500.0, 187500.0, 187500.0, 187500.0, -3168.2927213064104, 187500.0, 187500.0, -181980.32611373975, 0.06, 0.002, 0.98, 192.0, 0.0, 0.0, 0.0, 0.0, 0.0, 0.0, 0.0, 0.0, 0.0, 1.708992574616094E9, 0.0, 2024-02-26 19:09:34.616
188.0, 187500.0, 187500.0, 187500.0, 187500.0, -3099.270534428422, 187500.0, 187500.0, -182039.73705050195, 0.06, 0.002, 0.98, 192.0, 0.0, 0.0, 0.0, 0.0, 0.0, 0.0, 0.0, 0.0, 0.0, 1.708992574619117E9, 0.0, 2024-02-26 19:09:34.619
189.0, 187500.0, 187500.0, 187500.0, 187500.0, -3051.0354698938695, 187500.0, 187500.0, -182150.7805169559, 0.06, 0.002, 0.98, 192.0, 0.0, 0.0, 0.0, 0.0, 0.0, 0.0, 0.0, 0.0, 0.0, 1.708992574622098E9, 0.0, 2024-02-26 19:09:34.622
190.0, 187500.0, 187500.0, 187500.0, 187500.0, -3172.427794030642, 187500.0, 187500.0, -182048.99067270645, 0.06, 0.002, 0.98, 192.0, 0.0, 0.0, 0.0, 0.0, 0.0, 0.0, 0.0, 0.0, 0.0, 1.708992574627199E9, 0.0, 2024-02-26 19:09:34.627
191.0, 187500.0, 187500.0, 187500.0, 187500.0, -3181.4131953016754, 187500.0, 187500.0, -181998.43102674856, 0.06, 0.002, 0.98, 192.0, 0.0, 0.0, 0.0, 0.0, 0.0, 0.0, 0.0, 0.0, 0.0, 1.70899257463109E9, 0.0, 2024-02-26 19:09:34.631
192.0, 187500.0, 187500.0, 187500.0, 187500.0, -3142.9234913496366, 187500.0, 187500.0, -182010.38921003215, 0.06, 0.002, 0.98, 192.0, 0.0, 0.0, 0.0, 0.0, 0.0, 0.0, 0.0, 0.0, 0.0, 1.708992574635086E9, 0.0, 2024-02-26 19:09:34.635
193.0, 187500.0, 187500.0, 187500.0, 187500.0, -3075.331816116788, 187500.0, 187500.0, -182120.15862705215, 0.06, 0.002, 0.98, 192.0, 0.0, 0.0, 0.0, 0.0, 0.0, 0.0, 0.0, 0.0, 0.0, 1.708992574639079E9, 0.0, 2024-02-26 19:09:34.639
194.0, 187500.0, 187500.0, 187500.0, 187500.0, -3167.4433550171084, 187500.0, 187500.0, -182064.14515544716, 0.06, 0.002, 0.98, 192.0, 0.0, 0.0, 0.0, 0.0, 0.0, 0.0, 0.0, 0.0, 0.0, 1.708992574644093E9, 0.0, 2024-02-26 19:09:34.644
195.0, 187500.0, 187500.0, 187500.0, 187500.0, -3188.945733183114, 187500.0, 187500.0, -182003.19194831754, 0.06, 0.002, 0.98, 192.0, 0.0, 0.0, 0.0, 0.0, 0.0, 0.0, 0.0, 0.0, 0.0, 1.70899257464708E9, 0.0, 2024-02-26 19:09:34.647
196.0, 187500.0, 187500.0, 187500.0, 187500.0, -3121.108188761257, 187500.0, 187500.0, -182025.83426545077, 0.064, 0.0, 0.98, 192.0, 2.0, 0.0, 0.0, 0.0, 30.0, 160.0, 0.0, 0.0, 0.0, 1.7089925746501E9, 0.0, 2024-02-26 19:09:34.650
197.0, 187500.0, 187500.0, 187500.0, 187500.0, -3018.5136817113976, 187500.0, 187500.0, -182171.8582119773, 0.064, 0.0, 0.98, 192.0, 0.0, 0.0, 0.0, 0.0, 0.0, 0.0, 0.0, 0.0, 0.0, 1.708992574655125E9, 0.0, 2024-02-26 19:09:34.655
198.0, 187500.0, 187500.0, 187500.0, 187500.0, -3120.8399678277933, 187500.0, 187500.0, -182128.04879284487, 0.064, 0.0, 0.98, 192.0, 0.0, 0.0, 0.0, 0.0, 0.0, 0.0, 0.0, 0.0, 0.0, 1.708992574659124E9, 0.0, 2024-02-26 19:09:34.659
199.0, 187500.0, 187500.0, 187500.0, 187500.0, -3199.7639774994827, 187500.0, 187500.0, -181998.16280581508, 0.064, 0.0, 0.98, 192.0, 0.0, 0.0, 0.0, 0.0, 0.0, 0.0, 0.0, 0.0, 0.0, 1.708992574663133E9, 0.0, 2024-02-26 19:09:34.663
200.0, 187500.0, 187500.0, 187500.0, 187500.0, -3159.396727013198, 187500.0, 187500.0, -181993.08895982374, 0.064, 0.0, 0.98, 192.0, 0.0, 0.0, 0.0, 0.0, 0.0, 0.0, 0.0, 0.0, 0.0, 1.70899257466713E9, 0.0, 2024-02-26 19:09:34.667
201.0, 187500.0, 187500.0, 187500.0, 187500.0, -3070.6155980367184, 187500.0, 187500.0, -182116.02355432793, 0.064, 0.0, 0.98, 192.0, 0.0, 0.0, 0.0, 0.0, 0.0, 0.0, 0.0, 0.0, 0.0, 1.708992574671134E9, 0.0, 2024-02-26 19:09:34.671
202.0, 187500.0, 187500.0, 187500.0, 187500.0, -3126.494959174986, 187500.0, 187500.0, -182127.35588876676, 0.064, 0.0, 0.98, 192.0, 0.0, 0.0, 0.0, 0.0, 0.0, 0.0, 0.0, 0.0, 0.0, 1.708992574675124E9, 0.0, 2024-02-26 19:09:34.675
203.0, 187500.0, 187500.0, 187500.0, 187500.0, -3212.459768350097, 187500.0, 187500.0, -181999.79448316034, 0.064, 0.0, 0.98, 192.0, 0.0, 0.0, 0.0, 0.0, 0.0, 0.0, 0.0, 0.0, 0.0, 1.708992574678143E9, 0.0, 2024-02-26 19:09:34.678
204.0, 187500.0, 187500.0, 187500.0, 187500.0, -3184.654198247695, 187500.0, 187500.0, -181975.87811659314, 0.064, 0.0, 0.98, 192.0, 0.0, 0.0, 0.0, 0.0, 0.0, 0.0, 0.0, 0.0, 0.0, 1.708992574683126E9, 0.0, 2024-02-26 19:09:34.683
205.0, 187500.0, 187500.0, 187500.0, 187500.0, -3100.008141995447, 187500.0, 187500.0, -182081.24423995547, 0.064, 0.0, 0.98, 192.0, 0.0, 0.0, 0.0, 0.0, 0.0, 0.0, 0.0, 0.0, 0.0, 1.708992574687125E9, 0.0, 2024-02-26 19:09:34.687
206.0, 187500.0, 187500.0, 187500.0, 187500.0, -3113.016857268436, 187500.0, 187500.0, -182134.62020571475, 0.06, 0.002, 0.978, 192.0, 1.0, 224.0, 0.0, 16.0, 30.0, 144.0, 0.0, 0.0, 0.0, 1.708992574691175E9, 0.0, 2024-02-26 19:09:34.691
207.0, 187500.0, 187500.0, 187500.0, 187500.0, -3222.205128932611, 187500.0, 187500.0, -182023.3532218162, 0.06, 0.002, 0.978, 192.0, 0.0, 0.0, 0.0, 0.0, 0.0, 0.0, 0.0, 0.0, 0.0, 1.708992574695186E9, 0.0, 2024-02-26 19:09:34.695
208.0, 187500.0, 187500.0, 187500.0, 187500.0, -3191.1138523952786, 187500.0, 187500.0, -181981.1531282846, 0.06, 0.002, 0.978, 192.0, 0.0, 0.0, 0.0, 0.0, 0.0, 0.0, 0.0, 0.0, 0.0, 1.708992574699178E9, 0.0, 2024-02-26 19:09:34.699
209.0, 187500.0, 187500.0, 187500.0, 187500.0, -3103.338551919288, 187500.0, 187500.0, -182050.06355644032, 0.06, 0.002, 0.978, 192.0, 0.0, 0.0, 0.0, 0.0, 0.0, 0.0, 0.0, 0.0, 0.0, 1.708992574702149E9, 0.0, 2024-02-26 19:09:34.702
210.0, 187500.0, 187500.0, 187500.0, 187500.0, -3055.7069844850284, 187500.0, 187500.0, -182147.1371826097, 0.06, 0.002, 0.978, 192.0, 0.0, 0.0, 0.0, 0.0, 0.0, 0.0, 0.0, 0.0, 0.0, 1.708992574706145E9, 0.0, 2024-02-26 19:09:34.706
211.0, 187500.0, 187500.0, 187500.0, 187500.0, -3161.631901458729, 187500.0, 187500.0, -182037.45717256752, 0.06, 0.002, 0.978, 192.0, 0.0, 0.0, 0.0, 0.0, 0.0, 0.0, 0.0, 0.0, 0.0, 1.708992574711185E9, 0.0, 2024-02-26 19:09:34.711
212.0, 187500.0, 187500.0, 187500.0, 187500.0, -3156.781572911927, 187500.0, 187500.0, -181981.17548002905, 0.06, 0.002, 0.978, 192.0, 0.0, 0.0, 0.0, 0.0, 0.0, 0.0, 0.0, 0.0, 0.0, 1.708992574715185E9, 0.0, 2024-02-26 19:09:34.715
213.0, 187500.0, 187500.0, 187500.0, 187500.0, -3097.6612088276397, 187500.0, 187500.0, -182021.69919272652, 0.06, 0.002, 0.978, 192.0, 0.0, 0.0, 0.0, 0.0, 0.0, 0.0, 0.0, 0.0, 0.0, 1.708992574719196E9, 0.0, 2024-02-26 19:09:34.719
214.0, 187500.0, 187500.0, 187500.0, 187500.0, -3039.3455075437437, 187500.0, 187500.0, -182146.91366516516, 0.06, 0.002, 0.978, 192.0, 0.0, 0.0, 0.0, 0.0, 0.0, 0.0, 0.0, 0.0, 0.0, 1.708992574723191E9, 0.0, 2024-02-26 19:09:34.723
215.0, 187500.0, 187500.0, 187500.0, 187500.0, -3173.299512064399, 187500.0, 187500.0, -182056.92554198808, 0.06, 0.002, 0.978, 192.0, 0.0, 0.0, 0.0, 0.0, 0.0, 0.0, 0.0, 0.0, 0.0, 1.708992574726189E9, 0.0, 2024-02-26 19:09:34.726
216.0, 187500.0, 187500.0, 187500.0, 187500.0, -3190.040968661424, 187500.0, 187500.0, -181983.2094887745, 0.058, -0.004, 0.984, 192.0, 1.0, 208.0, 255.0, 224.0, 30.0, 192.0, 0.0, 0.0, 0.0, 1.708992574730194E9, 0.0, 2024-02-26 19:09:34.730
217.0, 187500.0, 187500.0, 187500.0, 187500.0, -3146.7009361625837, 187500.0, 187500.0, -182016.53593975736, 0.058, -0.004, 0.984, 192.0, 0.0, 0.0, 0.0, 0.0, 0.0, 0.0, 0.0, 0.0, 0.0, 1.708992574734186E9, 0.0, 2024-02-26 19:09:34.734
218.0, 187500.0, 187500.0, 187500.0, 187500.0, -3077.634045795685, 187500.0, 187500.0, -182152.21102860107, 0.058, -0.004, 0.984, 192.0, 0.0, 0.0, 0.0, 0.0, 0.0, 0.0, 0.0, 0.0, 0.0, 1.708992574739187E9, 0.0, 2024-02-26 19:09:34.739
219.0, 187500.0, 187500.0, 187500.0, 187500.0, -3200.2110123885886, 187500.0, 187500.0, -182084.03820801238, 0.058, -0.004, 0.984, 192.0, 0.0, 0.0, 0.0, 0.0, 0.0, 0.0, 0.0, 0.0, 0.0, 1.708992574743195E9, 0.0, 2024-02-26 19:09:34.743
220.0, 187500.0, 187500.0, 187500.0, 187500.0, -3261.901827085236, 187500.0, 187500.0, -182003.2590035509, 0.058, -0.004, 0.984, 192.0, 0.0, 0.0, 0.0, 0.0, 0.0, 0.0, 0.0, 0.0, 0.0, 1.708992574747203E9, 0.0, 2024-02-26 19:09:34.747
221.0, 187500.0, 187500.0, 187500.0, 187500.0, -3215.96899222958, 187500.0, 187500.0, -182029.54465503033, 0.058, -0.004, 0.984, 192.0, 0.0, 0.0, 0.0, 0.0, 0.0, 0.0, 0.0, 0.0, 0.0, 1.708992574751194E9, 0.0, 2024-02-26 19:09:34.751
222.0, 187500.0, 187500.0, 187500.0, 187500.0, -3110.3569996782544, 187500.0, 187500.0, -182170.56181079888, 0.058, -0.004, 0.984, 192.0, 0.0, 0.0, 0.0, 0.0, 0.0, 0.0, 0.0, 0.0, 0.0, 1.708992574754196E9, 0.0, 2024-02-26 19:09:34.754
223.0, 187500.0, 187500.0, 187500.0, 187500.0, -3154.7028606775834, 187500.0, 187500.0, -182164.97387468503, 0.058, -0.004, 0.984, 192.0, 0.0, 0.0, 0.0, 0.0, 0.0, 0.0, 0.0, 0.0, 0.0, 1.708992574758237E9, 0.0, 2024-02-26 19:09:34.758
224.0, 187500.0, 187500.0, 187500.0, 187500.0, -3213.711466039594, 187500.0, 187500.0, -182010.38921003215, 0.058, -0.004, 0.984, 192.0, 0.0, 0.0, 0.0, 0.0, 0.0, 0.0, 0.0, 0.0, 0.0, 1.70899257476225E9, 0.0, 2024-02-26 19:09:34.762
225.0, 187500.0, 187500.0, 187500.0, 187500.0, -3169.0303288734353, 187500.0, 187500.0, -181983.23184051894, 0.058, -0.004, 0.984, 192.0, 0.0, 0.0, 0.0, 0.0, 0.0, 0.0, 0.0, 0.0, 0.0, 1.708992574766251E9, 0.0, 2024-02-26 19:09:34.766
226.0, 187500.0, 187500.0, 187500.0, 187500.0, -3061.406679321132, 187500.0, 187500.0, -182099.6397256422, 0.06, 0.004, 0.98, 192.0, 1.0, 224.0, 0.0, 32.0, 30.0, 160.0, 0.0, 0.0, 0.0, 1.708992574771242E9, 0.0, 2024-02-26 19:09:34.771
227.0, 187500.0, 187500.0, 187500.0, 187500.0, -3105.1266914757125, 187500.0, 187500.0, -182118.72811540702, 0.06, 0.004, 0.98, 192.0, 0.0, 0.0, 0.0, 0.0, 0.0, 0.0, 0.0, 0.0, 0.0, 1.708992574775261E9, 0.0, 2024-02-26 19:09:34.775
228.0, 187500.0, 187500.0, 187500.0, 187500.0, -3189.906858194692, 187500.0, 187500.0, -182020.13457061467, 0.06, 0.004, 0.98, 192.0, 0.0, 0.0, 0.0, 0.0, 0.0, 0.0, 0.0, 0.0, 0.0, 1.708992574779251E9, 0.0, 2024-02-26 19:09:34.779
229.0, 187500.0, 187500.0, 187500.0, 187500.0, -3156.714517678561, 187500.0, 187500.0, -181983.2094887745, 0.06, 0.004, 0.98, 192.0, 0.0, 0.0, 0.0, 0.0, 0.0, 0.0, 0.0, 0.0, 0.0, 1.708992574783251E9, 0.0, 2024-02-26 19:09:34.783
230.0, 187500.0, 187500.0, 187500.0, 187500.0, -3066.078193912291, 187500.0, 187500.0, -182070.31423691683, 0.06, 0.004, 0.98, 192.0, 0.0, 0.0, 0.0, 0.0, 0.0, 0.0, 0.0, 0.0, 0.0, 1.708992574786247E9, 0.0, 2024-02-26 19:09:34.786
231.0, 187500.0, 187500.0, 187500.0, 187500.0, -3071.9567027040366, 187500.0, 187500.0, -182131.53566497992, 0.06, 0.004, 0.98, 192.0, 0.0, 0.0, 0.0, 0.0, 0.0, 0.0, 0.0, 0.0, 0.0, 1.708992574790285E9, 0.0, 2024-02-26 19:09:34.790
232.0, 187500.0, 187500.0, 187500.0, 187500.0, -3188.29753259391, 187500.0, 187500.0, -182027.73416372947, 0.06, 0.004, 0.98, 192.0, 0.0, 0.0, 0.0, 0.0, 0.0, 0.0, 0.0, 0.0, 0.0, 1.708992574794256E9, 0.0, 2024-02-26 19:09:34.794
233.0, 187500.0, 187500.0, 187500.0, 187500.0, -3177.4122330441755, 187500.0, 187500.0, -181991.65844817858, 0.06, 0.004, 0.98, 192.0, 0.0, 0.0, 0.0, 0.0, 0.0, 0.0, 0.0, 0.0, 0.0, 1.7089925747993E9, 0.0, 2024-02-26 19:09:34.799
234.0, 187500.0, 187500.0, 187500.0, 187500.0, -3112.301601445866, 187500.0, 187500.0, -182056.3220448878, 0.06, 0.004, 0.98, 192.0, 0.0, 0.0, 0.0, 0.0, 0.0, 0.0, 0.0, 0.0, 0.0, 1.708992574803287E9, 0.0, 2024-02-26 19:09:34.803
235.0, 187500.0, 187500.0, 187500.0, 187500.0, -3085.144231932668, 187500.0, 187500.0, -182146.06429887586, 0.06, 0.004, 0.98, 192.0, 0.0, 0.0, 0.0, 0.0, 0.0, 0.0, 0.0, 0.0, 0.0, 1.708992574807303E9, 0.0, 2024-02-26 19:09:34.807
236.0, 187500.0, 187500.0, 187500.0, 187500.0, -3198.6687420211724, 187500.0, 187500.0, -182040.16173364662, 0.058, 0.002, 0.976, 192.0, 1.0, 208.0, 0.0, 16.0, 30.0, 128.0, 0.0, 0.0, 0.0, 1.708992574810291E9, 0.0, 2024-02-26 19:09:34.810
237.0, 187500.0, 187500.0, 187500.0, 187500.0, -3198.0205414319685, 187500.0, 187500.0, -181987.21045103198, 0.058, 0.002, 0.976, 192.0, 0.0, 0.0, 0.0, 0.0, 0.0, 0.0, 0.0, 0.0, 0.0, 1.708992574814289E9, 0.0, 2024-02-26 19:09:34.814
238.0, 187500.0, 187500.0, 187500.0, 187500.0, -3133.647517400684, 187500.0, 187500.0, -182029.18702711904, 0.058, 0.002, 0.976, 192.0, 0.0, 0.0, 0.0, 0.0, 0.0, 0.0, 0.0, 0.0, 0.0, 1.708992574818281E9, 0.0, 2024-02-26 19:09:34.818
239.0, 187500.0, 187500.0, 187500.0, 187500.0, -3058.433897308576, 187500.0, 187500.0, -182166.247924119, 0.058, 0.002, 0.976, 192.0, 0.0, 0.0, 0.0, 0.0, 0.0, 0.0, 0.0, 0.0, 0.0, 1.708992574822278E9, 0.0, 2024-02-26 19:09:34.822
240.0, 187500.0, 187500.0, 187500.0, 187500.0, -3189.0574919053906, 187500.0, 187500.0, -182069.39781539416, 0.058, 0.002, 0.976, 192.0, 0.0, 0.0, 0.0, 0.0, 0.0, 0.0, 0.0, 0.0, 0.0, 1.708992574827316E9, 0.0, 2024-02-26 19:09:34.827
241.0, 187500.0, 187500.0, 187500.0, 187500.0, -3214.449073606619, 187500.0, 187500.0, -181985.19879403102, 0.058, 0.002, 0.976, 192.0, 0.0, 0.0, 0.0, 0.0, 0.0, 0.0, 0.0, 0.0, 0.0, 1.708992574831281E9, 0.0, 2024-02-26 19:09:34.831
242.0, 187500.0, 187500.0, 187500.0, 187500.0, -3163.7553171819827, 187500.0, 187500.0, -182009.29397455385, 0.058, 0.002, 0.976, 192.0, 0.0, 0.0, 0.0, 0.0, 0.0, 0.0, 0.0, 0.0, 0.0, 1.708992574834286E9, 0.0, 2024-02-26 19:09:34.834
243.0, 187500.0, 187500.0, 187500.0, 187500.0, -3071.0626329258243, 187500.0, 187500.0, -182140.94574939559, 0.058, 0.002, 0.976, 192.0, 0.0, 0.0, 0.0, 0.0, 0.0, 0.0, 0.0, 0.0, 0.0, 1.708992574838293E9, 0.0, 2024-02-26 19:09:34.838
244.0, 187500.0, 187500.0, 187500.0, 187500.0, -3160.8272386583376, 187500.0, 187500.0, -182085.28990570188, 0.058, 0.002, 0.976, 192.0, 0.0, 0.0, 0.0, 0.0, 0.0, 0.0, 0.0, 0.0, 0.0, 1.708992574842282E9, 0.0, 2024-02-26 19:09:34.842
245.0, 187500.0, 187500.0, 187500.0, 187500.0, -3195.8300704753483, 187500.0, 187500.0, -182005.38241927416, 0.058, 0.002, 0.976, 192.0, 0.0, 0.0, 0.0, 0.0, 0.0, 0.0, 0.0, 0.0, 0.0, 1.70899257484631E9, 0.0, 2024-02-26 19:09:34.846
246.0, 187500.0, 187500.0, 187500.0, 187500.0, -3129.5124446764526, 187500.0, 187500.0, -182019.9110531701, 0.06, 0.004, 0.974, 192.0, 1.0, 224.0, 0.0, 32.0, 30.0, 112.0, 0.0, 0.0, 0.0, 1.708992574850324E9, 0.0, 2024-02-26 19:09:34.850
247.0, 187500.0, 187500.0, 187500.0, 187500.0, -3035.4563040085204, 187500.0, 187500.0, -182157.77661297043, 0.06, 0.004, 0.974, 192.0, 0.0, 0.0, 0.0, 0.0, 0.0, 0.0, 0.0, 0.0, 0.0, 1.708992574855313E9, 0.0, 2024-02-26 19:09:34.855
248.0, 187500.0, 187500.0, 187500.0, 187500.0, -3123.0304387844135, 187500.0, 187500.0, -182112.38021998171, 0.06, 0.004, 0.974, 192.0, 0.0, 0.0, 0.0, 0.0, 0.0, 0.0, 0.0, 0.0, 0.0, 1.708992574859311E9, 0.0, 2024-02-26 19:09:34.859
249.0, 187500.0, 187500.0, 187500.0, 187500.0, -3184.140108125223, 187500.0, 187500.0, -181992.82073889027, 0.06, 0.004, 0.974, 192.0, 0.0, 0.0, 0.0, 0.0, 0.0, 0.0, 0.0, 0.0, 0.0, 1.708992574862314E9, 0.0, 2024-02-26 19:09:34.862
250.0, 187500.0, 187500.0, 187500.0, 187500.0, -3146.4997704624857, 187500.0, 187500.0, -181984.55059344182, 0.06, 0.004, 0.974, 192.0, 0.0, 0.0, 0.0, 0.0, 0.0, 0.0, 0.0, 0.0, 0.0, 1.708992574866345E9, 0.0, 2024-02-26 19:09:34.866
251.0, 187500.0, 187500.0, 187500.0, 187500.0, -3058.2774350973887, 187500.0, 187500.0, -182102.05371404334, 0.06, 0.004, 0.974, 192.0, 0.0, 0.0, 0.0, 0.0, 0.0, 0.0, 0.0, 0.0, 0.0, 1.708992574870323E9, 0.0, 2024-02-26 19:09:34.870
252.0, 187500.0, 187500.0, 187500.0, 187500.0, -3094.8001855373604, 187500.0, 187500.0, -182128.78640041192, 0.06, 0.004, 0.974, 192.0, 0.0, 0.0, 0.0, 0.0, 0.0, 0.0, 0.0, 0.0, 0.0, 1.708992574874313E9, 0.0, 2024-02-26 19:09:34.874
253.0, 187500.0, 187500.0, 187500.0, 187500.0, -3188.8339744608375, 187500.0, 187500.0, -182004.42129426257, 0.06, 0.004, 0.974, 192.0, 0.0, 0.0, 0.0, 0.0, 0.0, 0.0, 0.0, 0.0, 0.0, 1.708992574878317E9, 0.0, 2024-02-26 19:09:34.878
254.0, 187500.0, 187500.0, 187500.0, 187500.0, -3176.3840527992315, 187500.0, 187500.0, -181972.79357585832, 0.06, 0.004, 0.974, 192.0, 0.0, 0.0, 0.0, 0.0, 0.0, 0.0, 0.0, 0.0, 0.0, 1.708992574883361E9, 0.0, 2024-02-26 19:09:34.883
255.0, 187500.0, 187500.0, 187500.0, 187500.0, -3121.9575550505588, 187500.0, 187500.0, -182055.87500999868, 0.06, 0.004, 0.974, 192.0, 0.0, 0.0, 0.0, 0.0, 0.0, 0.0, 0.0, 0.0, 0.0, 1.708992574887358E9, 0.0, 2024-02-26 19:09:34.887
0.0, 187500.0, 187500.0, 187500.0, 187500.0, -3131.1217702772346, 187500.0, 187500.0, -182116.35883049475, 0.06, 0.006, 0.98, 192.0, 1.0, 224.0, 0.0, 48.0, 30.0, 160.0, 0.0, 0.0, 0.0, 1.708992574890353E9, 0.0, 2024-02-26 19:09:34.890
1.0, 187500.0, 187500.0, 187500.0, 187500.0, -3237.426666906675, 187500.0, 187500.0, -182021.67684098208, 0.06, 0.006, 0.98, 192.0, 0.0, 0.0, 0.0, 0.0, 0.0, 0.0, 0.0, 0.0, 0.0, 1.708992574894361E9, 0.0, 2024-02-26 19:09:34.894
2.0, 187500.0, 187500.0, 187500.0, 187500.0, -3192.3879018292314, 187500.0, 187500.0, -182012.8479019222, 0.06, 0.006, 0.98, 192.0, 0.0, 0.0, 0.0, 0.0, 0.0, 0.0, 0.0, 0.0, 0.0, 1.708992574899361E9, 0.0, 2024-02-26 19:09:34.899
3.0, 187500.0, 187500.0, 187500.0, 187500.0, -3100.3434181622765, 187500.0, 187500.0, -182092.0848360163, 0.06, 0.006, 0.98, 192.0, 0.0, 0.0, 0.0, 0.0, 0.0, 0.0, 0.0, 0.0, 0.0, 1.70899257490236E9, 0.0, 2024-02-26 19:09:34.902
