%OpenBCI Raw EXG Data
%Number of channels = 8
%Sample Rate = 250 Hz
%Board = OpenBCI_GUI$BoardCytonSerial
Sample Index, EXG Channel 0, EXG Channel 1, EXG Channel 2, EXG Channel 3, EXG Channel 4, EXG Channel 5, EXG Channel 6, EXG Channel 7, Accel Channel 0, Accel Channel 1, Accel Channel 2, Other, Other, Other, Other, Other, Other, Other, Analog Channel 0, Analog Channel 1, Analog Channel 2, Timestamp, Other, Timestamp (Formatted)
0.0, 0.0, 0.0, 0.0, 0.0, 0.0, 0.0, 0.0, 0.0, 0.056, 0.008, 0.982, 192.0, 1.0, 192.0, 0.0, 64.0, 30.0, 176.0, 0.0, 0.0, 0.0, 1.708992499888492E9, 0.0, 2024-02-26 19:08:19.888
1.0, 187500.0, 187500.0, 187500.0, 187500.0, -12030.245307713189, 187500.0, 187500.0, -182843.17050494798, 0.056, 0.008, 0.982, 192.0, 0.0, 0.0, 0.0, 0.0, 0.0, 0.0, 0.0, 0.0, 0.0, 1.708992499905489E9, 0.0, 2024-02-26 19:08:19.905
2.0, 187500.0, 187500.0, 187500.0, 187500.0, -12092.606674743494, 187500.0, 187500.0, -182836.53203684476, 0.056, 0.008, 0.982, 192.0, 0.0, 0.0, 0.0, 0.0, 0.0, 0.0, 0.0, 0.0, 0.0, 1.708992499908482E9, 0.0, 2024-02-26 19:08:19.908
3.0, 187500.0, 187500.0, 187500.0, 187500.0, -12188.36154799003, 187500.0, 187500.0, -182725.890901791, 0.056, 0.008, 0.982, 192.0, 0.0, 0.0, 0.0, 0.0, 0.0, 0.0, 0.0, 0.0, 0.0, 1.708992499912521E9, 0.0, 2024-02-26 19:08:19.912
4.0, 187500.0, 187500.0, 187500.0, 187500.0, -12143.389838145953, 187500.0, 187500.0, -182733.19992222785, 0.056, 0.008, 0.982, 192.0, 0.0, 0.0, 0.0, 0.0, 0.0, 0.0, 0.0, 0.0, 0.0, 1.708992499916528E9, 0.0, 2024-02-26 19:08:19.916
5.0, 187500.0, 187500.0, 187500.0, 187500.0, -12040.504758418174, 187500.0, 187500.0, -182852.58058936367, 0.056, 0.008, 0.982, 192.0, 0.0, 0.0, 0.0, 0.0, 0.0, 0.0, 0.0, 0.0, 0.0, 1.708992499919537E9, 0.0, 2024-02-26 19:08:19.919
6.0, 187500.0, 187500.0, 187500.0, 187500.0, -12057.514435948664, 187500.0, 187500.0, -182850.72539457388, 0.056, 0.008, 0.982, 192.0, 0.0, 0.0, 0.0, 0.0, 0.0, 0.0, 0.0, 0.0, 0.0, 1.708992499923544E9, 0.0, 2024-02-26 19:08:19.923
7.0, 187500.0, 187500.0, 187500.0, 187500.0, -12182.930074087391, 187500.0, 187500.0, -182725.3768116685, 0.056, 0.008, 0.982, 192.0, 0.0, 0.0, 0.0, 0.0, 0.0, 0.0, 0.0, 0.0, 0.0, 1.708992499927557E9, 0.0, 2024-02-26 19:08:19.927
8.0, 187500.0, 187500.0, 187500.0, 187500.0, -12160.444219165352, 187500.0, 187500.0, -182660.6685114704, 0.058, 0.006, 0.98, 192.0, 1.0, 208.0, 0.0, 48.0, 30.0, 160.0, 0.0, 0.0, 0.0, 1.708992499932646E9, 0.0, 2024-02-26 19:08:19.932
9.0, 187500.0, 187500.0, 187500.0, 187500.0, -12042.471711930242, 187500.0, 187500.0, -182719.90063427694, 0.058, 0.006, 0.98, 192.0, 0.0, 0.0, 0.0, 0.0, 0.0, 0.0, 0.0, 0.0, 0.0, 1.708992499936559E9, 0.0, 2024-02-26 19:08:19.936
10.0, 187500.0, 187500.0, 187500.0, 187500.0, -12014.174403449822, 187500.0, 187500.0, -182856.1568684765, 0.058, 0.006, 0.98, 192.0, 0.0, 0.0, 0.0, 0.0, 0.0, 0.0, 0.0, 0.0, 0.0, 1.708992499941223E9, 0.0, 2024-02-26 19:08:19.941
11.0, 187500.0, 187500.0, 187500.0, 187500.0, -12177.051565295646, 187500.0, 187500.0, -182726.60615761354, 0.058, 0.006, 0.98, 192.0, 0.0, 0.0, 0.0, 0.0, 0.0, 0.0, 0.0, 0.0, 0.0, 1.708992499944532E9, 0.0, 2024-02-26 19:08:19.944
12.0, 187500.0, 187500.0, 187500.0, 187500.0, -12194.463574226329, 187500.0, 187500.0, -182689.27874437318, 0.058, 0.006, 0.98, 192.0, 0.0, 0.0, 0.0, 0.0, 0.0, 0.0, 0.0, 0.0, 0.0, 1.708992499948535E9, 0.0, 2024-02-26 19:08:19.948
13.0, 187500.0, 187500.0, 187500.0, 187500.0, -12131.744579284737, 187500.0, 187500.0, -182754.07645154913, 0.058, 0.006, 0.98, 192.0, 0.0, 0.0, 0.0, 0.0, 0.0, 0.0, 0.0, 0.0, 0.0, 1.70899249995153E9, 0.0, 2024-02-26 19:08:19.951
14.0, 187500.0, 187500.0, 187500.0, 187500.0, -12057.022697570646, 187500.0, 187500.0, -182895.25006952885, 0.058, 0.006, 0.98, 192.0, 0.0, 0.0, 0.0, 0.0, 0.0, 0.0, 0.0, 0.0, 0.0, 1.708992499956528E9, 0.0, 2024-02-26 19:08:19.956
15.0, 187500.0, 187500.0, 187500.0, 187500.0, -12191.066109069123, 187500.0, 187500.0, -182792.2085275899, 0.058, 0.006, 0.98, 192.0, 0.0, 0.0, 0.0, 0.0, 0.0, 0.0, 0.0, 0.0, 0.0, 1.708992499960573E9, 0.0, 2024-02-26 19:08:19.960
16.0, 187500.0, 187500.0, 187500.0, 187500.0, -12175.799867606149, 187500.0, 187500.0, -182687.8705844725, 0.058, 0.006, 0.98, 192.0, 0.0, 0.0, 0.0, 0.0, 0.0, 0.0, 0.0, 0.0, 0.0, 1.708992499964575E9, 0.0, 2024-02-26 19:08:19.964
17.0, 187500.0, 187500.0, 187500.0, 187500.0, -12091.645549731917, 187500.0, 187500.0, -182720.2806139327, 0.056, 0.004, 0.98, 192.0, 1.0, 192.0, 0.0, 32.0, 30.0, 160.0, 0.0, 0.0, 0.0, 1.708992499968571E9, 0.0, 2024-02-26 19:08:19.968
18.0, 187500.0, 187500.0, 187500.0, 187500.0, -11970.610853506429, 187500.0, 187500.0, -182831.61465306458, 0.056, 0.004, 0.98, 192.0, 0.0, 0.0, 0.0, 0.0, 0.0, 0.0, 0.0, 0.0, 0.0, 1.708992499974574E9, 0.0, 2024-02-26 19:08:19.974
19.0, 187500.0, 187500.0, 187500.0, 187500.0, -12079.732069937238, 187500.0, 187500.0, -182773.3883587585, 0.056, 0.004, 0.98, 192.0, 0.0, 0.0, 0.0, 0.0, 0.0, 0.0, 0.0, 0.0, 0.0, 1.708992499977584E9, 0.0, 2024-02-26 19:08:19.977
20.0, 187500.0, 187500.0, 187500.0, 187500.0, -12114.198459887322, 187500.0, 187500.0, -182690.39633159596, 0.056, 0.004, 0.98, 192.0, 0.0, 0.0, 0.0, 0.0, 0.0, 0.0, 0.0, 0.0, 0.0, 1.708992499980575E9, 0.0, 2024-02-26 19:08:19.980
21.0, 187500.0, 187500.0, 187500.0, 187500.0, -12090.527962509152, 187500.0, 187500.0, -182678.79577622365, 0.056, 0.004, 0.98, 192.0, 0.0, 0.0, 0.0, 0.0, 0.0, 0.0, 0.0, 0.0, 0.0, 1.708992499983581E9, 0.0, 2024-02-26 19:08:19.983
22.0, 187500.0, 187500.0, 187500.0, 187500.0, -11969.001527905648, 187500.0, 187500.0, -182803.83143470663, 0.056, 0.004, 0.98, 192.0, 0.0, 0.0, 0.0, 0.0, 0.0, 0.0, 0.0, 0.0, 0.0, 1.70899249998857E9, 0.0, 2024-02-26 19:08:19.988
23.0, 187500.0, 187500.0, 187500.0, 187500.0, -12018.912973274348, 187500.0, 187500.0, -182811.6992487549, 0.056, 0.004, 0.98, 192.0, 0.0, 0.0, 0.0, 0.0, 0.0, 0.0, 0.0, 0.0, 0.0, 1.708992499992578E9, 0.0, 2024-02-26 19:08:19.992
24.0, 187500.0, 187500.0, 187500.0, 187500.0, -12096.853506190004, 187500.0, 187500.0, -182741.29125372067, 0.056, 0.004, 0.98, 192.0, 0.0, 0.0, 0.0, 0.0, 0.0, 0.0, 0.0, 0.0, 0.0, 1.708992499996622E9, 0.0, 2024-02-26 19:08:19.996
25.0, 187500.0, 187500.0, 187500.0, 187500.0, -12056.843883615004, 187500.0, 187500.0, -182723.20869245633, 0.056, 0.004, 0.98, 192.0, 0.0, 0.0, 0.0, 0.0, 0.0, 0.0, 0.0, 0.0, 0.0, 1.708992500000616E9, 0.0, 2024-02-26 19:08:20.000
26.0, 187500.0, 187500.0, 187500.0, 187500.0, -11918.106605780913, 187500.0, 187500.0, -182804.27846959574, 0.056, 0.004, 0.98, 192.0, 0.0, 0.0, 0.0, 0.0, 0.0, 0.0, 0.0, 0.0, 0.0, 1.708992500003608E9, 0.0, 2024-02-26 19:08:20.003
27.0, 187500.0, 187500.0, 187500.0, 187500.0, -11949.287289296066, 187500.0, 187500.0, -182796.07537938064, 0.058, 0.0, 0.976, 192.0, 1.0, 208.0, 0.0, 0.0, 30.0, 128.0, 0.0, 0.0, 0.0, 1.708992500007609E9, 0.0, 2024-02-26 19:08:20.007
28.0, 187500.0, 187500.0, 187500.0, 187500.0, -12047.612613154963, 187500.0, 187500.0, -182693.79379675316, 0.058, 0.0, 0.976, 192.0, 0.0, 0.0, 0.0, 0.0, 0.0, 0.0, 0.0, 0.0, 0.0, 1.708992500011617E9, 0.0, 2024-02-26 19:08:20.011
29.0, 187500.0, 187500.0, 187500.0, 187500.0, -12019.963505263748, 187500.0, 187500.0, -182684.24960187075, 0.058, 0.0, 0.976, 192.0, 0.0, 0.0, 0.0, 0.0, 0.0, 0.0, 0.0, 0.0, 0.0, 1.708992500016618E9, 0.0, 2024-02-26 19:08:20.016
30.0, 187500.0, 187500.0, 187500.0, 187500.0, -11890.770422312073, 187500.0, 187500.0, -182780.7867861732, 0.058, 0.0, 0.976, 192.0, 0.0, 0.0, 0.0, 0.0, 0.0, 0.0, 0.0, 0.0, 0.0, 1.708992500020619E9, 0.0, 2024-02-26 19:08:20.020
31.0, 187500.0, 187500.0, 187500.0, 187500.0, -11866.831704000439, 187500.0, 187500.0, -182814.60497553408, 0.058, 0.0, 0.976, 192.0, 0.0, 0.0, 0.0, 0.0, 0.0, 0.0, 0.0, 0.0, 0.0, 1.708992500024623E9, 0.0, 2024-02-26 19:08:20.024
32.0, 187500.0, 187500.0, 187500.0, 187500.0, -11987.218199636722, 187500.0, 187500.0, -182702.68979104637, 0.058, 0.0, 0.976, 192.0, 0.0, 0.0, 0.0, 0.0, 0.0, 0.0, 0.0, 0.0, 0.0, 1.708992500027796E9, 0.0, 2024-02-26 19:08:20.027
33.0, 187500.0, 187500.0, 187500.0, 187500.0, -11978.433964065787, 187500.0, 187500.0, -182654.70059570082, 0.058, 0.0, 0.976, 192.0, 0.0, 0.0, 0.0, 0.0, 0.0, 0.0, 0.0, 0.0, 0.0, 1.708992500031657E9, 0.0, 2024-02-26 19:08:20.031
34.0, 187500.0, 187500.0, 187500.0, 187500.0, -11890.815125800984, 187500.0, 187500.0, -182799.78576896022, 0.058, 0.0, 0.976, 192.0, 0.0, 0.0, 0.0, 0.0, 0.0, 0.0, 0.0, 0.0, 0.0, 1.70899250003566E9, 0.0, 2024-02-26 19:08:20.035
35.0, 187500.0, 187500.0, 187500.0, 187500.0, -11844.479959545131, 187500.0, 187500.0, -182893.6630956725, 0.058, 0.0, 0.976, 192.0, 0.0, 0.0, 0.0, 0.0, 0.0, 0.0, 0.0, 0.0, 0.0, 1.708992500039653E9, 0.0, 2024-02-26 19:08:20.039
36.0, 187500.0, 187500.0, 187500.0, 187500.0, -11983.820734479516, 187500.0, 187500.0, -182745.06869853364, 0.058, 0.0, 0.976, 192.0, 0.0, 0.0, 0.0, 0.0, 0.0, 0.0, 0.0, 0.0, 0.0, 1.708992500044662E9, 0.0, 2024-02-26 19:08:20.044
37.0, 187500.0, 187500.0, 187500.0, 187500.0, -11977.115211142924, 187500.0, 187500.0, -182676.18062212237, 0.06, -0.004, 0.976, 192.0, 1.0, 224.0, 255.0, 224.0, 30.0, 128.0, 0.0, 0.0, 0.0, 1.708992500048666E9, 0.0, 2024-02-26 19:08:20.048
38.0, 187500.0, 187500.0, 187500.0, 187500.0, -11891.776250812562, 187500.0, 187500.0, -182714.40210514094, 0.06, -0.004, 0.976, 192.0, 0.0, 0.0, 0.0, 0.0, 0.0, 0.0, 0.0, 0.0, 0.0, 1.708992500052673E9, 0.0, 2024-02-26 19:08:20.052
39.0, 187500.0, 187500.0, 187500.0, 187500.0, -11794.85908685435, 187500.0, 187500.0, -182828.41835360747, 0.06, -0.004, 0.976, 192.0, 0.0, 0.0, 0.0, 0.0, 0.0, 0.0, 0.0, 0.0, 0.0, 1.708992500055651E9, 0.0, 2024-02-26 19:08:20.055
40.0, 187500.0, 187500.0, 187500.0, 187500.0, -11927.06965530749, 187500.0, 187500.0, -182712.18928243988, 0.06, -0.004, 0.976, 192.0, 0.0, 0.0, 0.0, 0.0, 0.0, 0.0, 0.0, 0.0, 0.0, 1.708992500059651E9, 0.0, 2024-02-26 19:08:20.059
41.0, 187500.0, 187500.0, 187500.0, 187500.0, -11955.210501576723, 187500.0, 187500.0, -182669.09511913004, 0.06, -0.004, 0.976, 192.0, 0.0, 0.0, 0.0, 0.0, 0.0, 0.0, 0.0, 0.0, 0.0, 1.708992500063659E9, 0.0, 2024-02-26 19:08:20.063
42.0, 187500.0, 187500.0, 187500.0, 187500.0, -11911.758710355605, 187500.0, 187500.0, -182684.45076757084, 0.06, -0.004, 0.976, 192.0, 0.0, 0.0, 0.0, 0.0, 0.0, 0.0, 0.0, 0.0, 0.0, 1.708992500067652E9, 0.0, 2024-02-26 19:08:20.067
43.0, 187500.0, 187500.0, 187500.0, 187500.0, -11810.52765971752, 187500.0, 187500.0, -182820.5505395592, 0.06, -0.004, 0.976, 192.0, 0.0, 0.0, 0.0, 0.0, 0.0, 0.0, 0.0, 0.0, 0.0, 1.708992500071702E9, 0.0, 2024-02-26 19:08:20.071
44.0, 187500.0, 187500.0, 187500.0, 187500.0, -11957.60213823344, 187500.0, 187500.0, -182815.90137671249, 0.06, -0.004, 0.976, 192.0, 0.0, 0.0, 0.0, 0.0, 0.0, 0.0, 0.0, 0.0, 0.0, 1.70899250007666E9, 0.0, 2024-02-26 19:08:20.076
45.0, 187500.0, 187500.0, 187500.0, 187500.0, -12021.036388997602, 187500.0, 187500.0, -182721.375849411, 0.06, -0.004, 0.976, 192.0, 0.0, 0.0, 0.0, 0.0, 0.0, 0.0, 0.0, 0.0, 0.0, 1.708992500080664E9, 0.0, 2024-02-26 19:08:20.080
46.0, 187500.0, 187500.0, 187500.0, 187500.0, -11976.84699020946, 187500.0, 187500.0, -182699.0688084446, 0.06, -0.004, 0.976, 192.0, 0.0, 0.0, 0.0, 0.0, 0.0, 0.0, 0.0, 0.0, 0.0, 1.708992500083695E9, 0.0, 2024-02-26 19:08:20.083
47.0, 187500.0, 187500.0, 187500.0, 187500.0, -11851.878386959837, 187500.0, 187500.0, -182822.87512098256, 0.064, -0.008, 0.976, 192.0, 2.0, 0.0, 255.0, 192.0, 30.0, 128.0, 0.0, 0.0, 0.0, 1.708992500087701E9, 0.0, 2024-02-26 19:08:20.087
48.0, 187500.0, 187500.0, 187500.0, 187500.0, -11929.88597510886, 187500.0, 187500.0, -182764.02297783174, 0.064, -0.008, 0.976, 192.0, 0.0, 0.0, 0.0, 0.0, 0.0, 0.0, 0.0, 0.0, 0.0, 1.708992500091695E9, 0.0, 2024-02-26 19:08:20.091
49.0, 187500.0, 187500.0, 187500.0, 187500.0, -12017.214240695745, 187500.0, 187500.0, -182682.43911056986, 0.064, -0.008, 0.976, 192.0, 0.0, 0.0, 0.0, 0.0, 0.0, 0.0, 0.0, 0.0, 0.0, 1.708992500095689E9, 0.0, 2024-02-26 19:08:20.095
50.0, 187500.0, 187500.0, 187500.0, 187500.0, -11991.643845038872, 187500.0, 187500.0, -182659.2603515697, 0.064, -0.008, 0.976, 192.0, 0.0, 0.0, 0.0, 0.0, 0.0, 0.0, 0.0, 0.0, 0.0, 1.708992500100715E9, 0.0, 2024-02-26 19:08:20.100
51.0, 187500.0, 187500.0, 187500.0, 187500.0, -11865.557654566486, 187500.0, 187500.0, -182791.06858862264, 0.064, -0.008, 0.976, 192.0, 0.0, 0.0, 0.0, 0.0, 0.0, 0.0, 0.0, 0.0, 0.0, 1.70899250010471E9, 0.0, 2024-02-26 19:08:20.104
52.0, 187500.0, 187500.0, 187500.0, 187500.0, -11891.575085112463, 187500.0, 187500.0, -182809.151149887, 0.064, -0.008, 0.976, 192.0, 0.0, 0.0, 0.0, 0.0, 0.0, 0.0, 0.0, 0.0, 0.0, 1.708992500108709E9, 0.0, 2024-02-26 19:08:20.108
53.0, 187500.0, 187500.0, 187500.0, 187500.0, -11998.505830586653, 187500.0, 187500.0, -182712.18928243988, 0.064, -0.008, 0.976, 192.0, 0.0, 0.0, 0.0, 0.0, 0.0, 0.0, 0.0, 0.0, 0.0, 1.708992500111693E9, 0.0, 2024-02-26 19:08:20.111
54.0, 187500.0, 187500.0, 187500.0, 187500.0, -11989.788650249082, 187500.0, 187500.0, -182719.90063427694, 0.064, -0.008, 0.976, 192.0, 0.0, 0.0, 0.0, 0.0, 0.0, 0.0, 0.0, 0.0, 0.0, 1.708992500115709E9, 0.0, 2024-02-26 19:08:20.115
55.0, 187500.0, 187500.0, 187500.0, 187500.0, -11896.671282848274, 187500.0, 187500.0, -182816.19194939043, 0.064, -0.008, 0.976, 192.0, 0.0, 0.0, 0.0, 0.0, 0.0, 0.0, 0.0, 0.0, 0.0, 1.708992500119747E9, 0.0, 2024-02-26 19:08:20.119
56.0, 187500.0, 187500.0, 187500.0, 187500.0, -11860.573215552953, 187500.0, 187500.0, -182848.24435093932, 0.064, -0.008, 0.976, 192.0, 0.0, 0.0, 0.0, 0.0, 0.0, 0.0, 0.0, 0.0, 0.0, 1.70899250012374E9, 0.0, 2024-02-26 19:08:20.123
57.0, 187500.0, 187500.0, 187500.0, 187500.0, -11978.433964065787, 187500.0, 187500.0, -182703.0250672132, 0.066, -0.01, 0.976, 192.0, 2.0, 16.0, 255.0, 176.0, 30.0, 128.0, 0.0, 0.0, 0.0, 1.70899250012774E9, 0.0, 2024-02-26 19:08:20.127
58.0, 187500.0, 187500.0, 187500.0, 187500.0, -11986.033557180592, 187500.0, 187500.0, -182634.02523207967, 0.066, -0.01, 0.976, 192.0, 0.0, 0.0, 0.0, 0.0, 0.0, 0.0, 0.0, 0.0, 0.0, 1.708992500132755E9, 0.0, 2024-02-26 19:08:20.132
59.0, 187500.0, 187500.0, 187500.0, 187500.0, -11899.822878816472, 187500.0, 187500.0, -182692.0727124301, 0.066, -0.01, 0.976, 192.0, 0.0, 0.0, 0.0, 0.0, 0.0, 0.0, 0.0, 0.0, 0.0, 1.708992500136803E9, 0.0, 2024-02-26 19:08:20.136
60.0, 187500.0, 187500.0, 187500.0, 187500.0, -11848.68208750273, 187500.0, 187500.0, -182818.31536511367, 0.066, -0.01, 0.976, 192.0, 0.0, 0.0, 0.0, 0.0, 0.0, 0.0, 0.0, 0.0, 0.0, 1.708992500139763E9, 0.0, 2024-02-26 19:08:20.139
61.0, 187500.0, 187500.0, 187500.0, 187500.0, -11995.309531129544, 187500.0, 187500.0, -182694.35259036455, 0.066, -0.01, 0.976, 192.0, 0.0, 0.0, 0.0, 0.0, 0.0, 0.0, 0.0, 0.0, 0.0, 1.708992500143768E9, 0.0, 2024-02-26 19:08:20.143
62.0, 187500.0, 187500.0, 187500.0, 187500.0, -12015.828432539516, 187500.0, 187500.0, -182657.2710463132, 0.066, -0.01, 0.976, 192.0, 0.0, 0.0, 0.0, 0.0, 0.0, 0.0, 0.0, 0.0, 0.0, 1.708992500147755E9, 0.0, 2024-02-26 19:08:20.147
63.0, 187500.0, 187500.0, 187500.0, 187500.0, -11952.79651317555, 187500.0, 187500.0, -182697.99592471076, 0.066, -0.01, 0.976, 192.0, 0.0, 0.0, 0.0, 0.0, 0.0, 0.0, 0.0, 0.0, 0.0, 1.708992500151762E9, 0.0, 2024-02-26 19:08:20.151
64.0, 187500.0, 187500.0, 187500.0, 187500.0, -11868.195160412211, 187500.0, 187500.0, -182879.93912457695, 0.066, -0.01, 0.976, 192.0, 0.0, 0.0, 0.0, 0.0, 0.0, 0.0, 0.0, 0.0, 0.0, 1.708992500155763E9, 0.0, 2024-02-26 19:08:20.155
65.0, 187500.0, 187500.0, 187500.0, 187500.0, -12012.207449937756, 187500.0, 187500.0, -182792.16382410095, 0.066, -0.01, 0.976, 192.0, 0.0, 0.0, 0.0, 0.0, 0.0, 0.0, 0.0, 0.0, 0.0, 1.70899250016078E9, 0.0, 2024-02-26 19:08:20.160
66.0, 187500.0, 187500.0, 187500.0, 187500.0, -12048.774903866639, 187500.0, 187500.0, -182673.69957848784, 0.066, -0.01, 0.976, 192.0, 0.0, 0.0, 0.0, 0.0, 0.0, 0.0, 0.0, 0.0, 0.0, 1.708992500163766E9, 0.0, 2024-02-26 19:08:20.163
67.0, 187500.0, 187500.0, 187500.0, 187500.0, -12002.350330632966, 187500.0, 187500.0, -182688.54113680616, 0.066, -0.002, 0.976, 192.0, 2.0, 16.0, 255.0, 240.0, 30.0, 128.0, 0.0, 0.0, 0.0, 1.708992500167774E9, 0.0, 2024-02-26 19:08:20.167
68.0, 187500.0, 187500.0, 187500.0, 187500.0, -11872.710212792184, 187500.0, 187500.0, -182832.03933620924, 0.066, -0.002, 0.976, 192.0, 0.0, 0.0, 0.0, 0.0, 0.0, 0.0, 0.0, 0.0, 0.0, 1.708992500171751E9, 0.0, 2024-02-26 19:08:20.171
69.0, 187500.0, 187500.0, 187500.0, 187500.0, -11972.443696551765, 187500.0, 187500.0, -182801.43979804992, 0.066, -0.002, 0.976, 192.0, 0.0, 0.0, 0.0, 0.0, 0.0, 0.0, 0.0, 0.0, 0.0, 1.708992500175796E9, 0.0, 2024-02-26 19:08:20.175
70.0, 187500.0, 187500.0, 187500.0, 187500.0, -12030.245307713189, 187500.0, 187500.0, -182694.93373572038, 0.066, -0.002, 0.976, 192.0, 0.0, 0.0, 0.0, 0.0, 0.0, 0.0, 0.0, 0.0, 0.0, 1.708992500179808E9, 0.0, 2024-02-26 19:08:20.179
71.0, 187500.0, 187500.0, 187500.0, 187500.0, -11996.360063118944, 187500.0, 187500.0, -182703.69561954687, 0.066, -0.002, 0.976, 192.0, 0.0, 0.0, 0.0, 0.0, 0.0, 0.0, 0.0, 0.0, 0.0, 1.70899250018583E9, 0.0, 2024-02-26 19:08:20.185
72.0, 187500.0, 187500.0, 187500.0, 187500.0, -11884.02019548657, 187500.0, 187500.0, -182808.65941150897, 0.066, -0.002, 0.976, 192.0, 0.0, 0.0, 0.0, 0.0, 0.0, 0.0, 0.0, 0.0, 0.0, 1.708992500188805E9, 0.0, 2024-02-26 19:08:20.188
73.0, 187500.0, 187500.0, 187500.0, 187500.0, -11957.2221585777, 187500.0, 187500.0, -182823.79154250523, 0.066, -0.002, 0.976, 192.0, 0.0, 0.0, 0.0, 0.0, 0.0, 0.0, 0.0, 0.0, 0.0, 1.708992500191801E9, 0.0, 2024-02-26 19:08:20.191
74.0, 187500.0, 187500.0, 187500.0, 187500.0, -12048.86431084446, 187500.0, 187500.0, -182726.56145412463, 0.066, -0.002, 0.976, 192.0, 0.0, 0.0, 0.0, 0.0, 0.0, 0.0, 0.0, 0.0, 0.0, 1.708992500195805E9, 0.0, 2024-02-26 19:08:20.195
75.0, 187500.0, 187500.0, 187500.0, 187500.0, -12017.013074995646, 187500.0, 187500.0, -182711.45167487283, 0.066, -0.002, 0.976, 192.0, 0.0, 0.0, 0.0, 0.0, 0.0, 0.0, 0.0, 0.0, 0.0, 1.708992500199812E9, 0.0, 2024-02-26 19:08:20.199
76.0, 187500.0, 187500.0, 187500.0, 187500.0, -11912.83159408946, 187500.0, 187500.0, -182782.30670479618, 0.066, -0.002, 0.976, 192.0, 0.0, 0.0, 0.0, 0.0, 0.0, 0.0, 0.0, 0.0, 0.0, 1.708992500203802E9, 0.0, 2024-02-26 19:08:20.203
77.0, 187500.0, 187500.0, 187500.0, 187500.0, -11931.517652454097, 187500.0, 187500.0, -182802.06564689465, 0.066, -0.002, 0.98, 192.0, 2.0, 16.0, 255.0, 240.0, 30.0, 160.0, 0.0, 0.0, 0.0, 1.708992500207798E9, 0.0, 2024-02-26 19:08:20.207
78.0, 187500.0, 187500.0, 187500.0, 187500.0, -12019.449415141275, 187500.0, 187500.0, -182663.6189417385, 0.066, -0.002, 0.98, 192.0, 0.0, 0.0, 0.0, 0.0, 0.0, 0.0, 0.0, 0.0, 0.0, 1.708992500211804E9, 0.0, 2024-02-26 19:08:20.211
79.0, 187500.0, 187500.0, 187500.0, 187500.0, -12016.633095339907, 187500.0, 187500.0, -182700.8792997455, 0.066, -0.002, 0.98, 192.0, 0.0, 0.0, 0.0, 0.0, 0.0, 0.0, 0.0, 0.0, 0.0, 1.708992500216816E9, 0.0, 2024-02-26 19:08:20.216
80.0, 187500.0, 187500.0, 187500.0, 187500.0, -11873.805448270494, 187500.0, 187500.0, -182783.11136759658, 0.066, -0.002, 0.98, 192.0, 0.0, 0.0, 0.0, 0.0, 0.0, 0.0, 0.0, 0.0, 0.0, 1.708992500219844E9, 0.0, 2024-02-26 19:08:20.219
81.0, 187500.0, 187500.0, 187500.0, 187500.0, -11837.573270508441, 187500.0, 187500.0, -182912.90794764852, 0.066, -0.002, 0.98, 192.0, 0.0, 0.0, 0.0, 0.0, 0.0, 0.0, 0.0, 0.0, 0.0, 1.708992500222846E9, 0.0, 2024-02-26 19:08:20.222
82.0, 187500.0, 187500.0, 187500.0, 187500.0, -11971.169647117811, 187500.0, 187500.0, -182758.12211729554, 0.066, -0.002, 0.98, 192.0, 0.0, 0.0, 0.0, 0.0, 0.0, 0.0, 0.0, 0.0, 0.0, 1.708992500227844E9, 0.0, 2024-02-26 19:08:20.227
83.0, 187500.0, 187500.0, 187500.0, 187500.0, -11973.65069075235, 187500.0, 187500.0, -182703.4721021023, 0.066, -0.002, 0.98, 192.0, 0.0, 0.0, 0.0, 0.0, 0.0, 0.0, 0.0, 0.0, 0.0, 1.708992500231847E9, 0.0, 2024-02-26 19:08:20.231
84.0, 187500.0, 187500.0, 187500.0, 187500.0, -11885.517762365076, 187500.0, 187500.0, -182773.3436552696, 0.066, -0.002, 0.98, 192.0, 0.0, 0.0, 0.0, 0.0, 0.0, 0.0, 0.0, 0.0, 0.0, 1.708992500235844E9, 0.0, 2024-02-26 19:08:20.235
85.0, 187500.0, 187500.0, 187500.0, 187500.0, -11798.055386311458, 187500.0, 187500.0, -182894.4677584729, 0.066, -0.002, 0.98, 192.0, 0.0, 0.0, 0.0, 0.0, 0.0, 0.0, 0.0, 0.0, 0.0, 1.708992500239841E9, 0.0, 2024-02-26 19:08:20.239
86.0, 187500.0, 187500.0, 187500.0, 187500.0, -11940.257184536122, 187500.0, 187500.0, -182778.9315913834, 0.066, -0.002, 0.98, 192.0, 0.0, 0.0, 0.0, 0.0, 0.0, 0.0, 0.0, 0.0, 0.0, 1.708992500243868E9, 0.0, 2024-02-26 19:08:20.243
87.0, 187500.0, 187500.0, 187500.0, 187500.0, -11957.020992877602, 187500.0, 187500.0, -182705.0814277031, 0.07, 0.0, 0.978, 192.0, 2.0, 48.0, 0.0, 0.0, 30.0, 144.0, 0.0, 0.0, 0.0, 1.708992500247853E9, 0.0, 2024-02-26 19:08:20.247
88.0, 187500.0, 187500.0, 187500.0, 187500.0, -11891.932713023749, 187500.0, 187500.0, -182733.19992222785, 0.07, 0.0, 0.978, 192.0, 0.0, 0.0, 0.0, 0.0, 0.0, 0.0, 0.0, 0.0, 0.0, 1.708992500250843E9, 0.0, 2024-02-26 19:08:20.250
89.0, 187500.0, 187500.0, 187500.0, 187500.0, -11782.52092391502, 187500.0, 187500.0, -182867.48920291534, 0.07, 0.0, 0.978, 192.0, 0.0, 0.0, 0.0, 0.0, 0.0, 0.0, 0.0, 0.0, 0.0, 1.708992500255839E9, 0.0, 2024-02-26 19:08:20.255
90.0, 187500.0, 187500.0, 187500.0, 187500.0, -11900.225210216668, 187500.0, 187500.0, -182746.92389332343, 0.07, 0.0, 0.978, 192.0, 0.0, 0.0, 0.0, 0.0, 0.0, 0.0, 0.0, 0.0, 0.0, 1.70899250025988E9, 0.0, 2024-02-26 19:08:20.259
91.0, 187500.0, 187500.0, 187500.0, 187500.0, -11937.485568223665, 187500.0, 187500.0, -182686.23890712726, 0.07, 0.0, 0.978, 192.0, 0.0, 0.0, 0.0, 0.0, 0.0, 0.0, 0.0, 0.0, 0.0, 1.708992500263888E9, 0.0, 2024-02-26 19:08:20.263
92.0, 187500.0, 187500.0, 187500.0, 187500.0, -11890.412794400787, 187500.0, 187500.0, -182696.54306132116, 0.07, 0.0, 0.978, 192.0, 0.0, 0.0, 0.0, 0.0, 0.0, 0.0, 0.0, 0.0, 0.0, 1.70899250026789E9, 0.0, 2024-02-26 19:08:20.267
93.0, 187500.0, 187500.0, 187500.0, 187500.0, -11762.113781227325, 187500.0, 187500.0, -182862.08008075715, 0.07, 0.0, 0.978, 192.0, 0.0, 0.0, 0.0, 0.0, 0.0, 0.0, 0.0, 0.0, 0.0, 1.708992500271882E9, 0.0, 2024-02-26 19:08:20.271
94.0, 187500.0, 187500.0, 187500.0, 187500.0, -11844.68112524523, 187500.0, 187500.0, -182827.7478012738, 0.07, 0.0, 0.978, 192.0, 0.0, 0.0, 0.0, 0.0, 0.0, 0.0, 0.0, 0.0, 0.0, 1.70899250027589E9, 0.0, 2024-02-26 19:08:20.275
95.0, 187500.0, 187500.0, 187500.0, 187500.0, -11928.477815208176, 187500.0, 187500.0, -182722.9851750118, 0.07, 0.0, 0.978, 192.0, 0.0, 0.0, 0.0, 0.0, 0.0, 0.0, 0.0, 0.0, 0.0, 1.708992500278882E9, 0.0, 2024-02-26 19:08:20.278
96.0, 187500.0, 187500.0, 187500.0, 187500.0, -11892.379747912855, 187500.0, 187500.0, -182681.58974428056, 0.07, 0.0, 0.978, 192.0, 0.0, 0.0, 0.0, 0.0, 0.0, 0.0, 0.0, 0.0, 0.0, 1.70899250028289E9, 0.0, 2024-02-26 19:08:20.282
97.0, 187500.0, 187500.0, 187500.0, 187500.0, -11752.524882855998, 187500.0, 187500.0, -182821.51166457077, 0.06, 0.0, 0.978, 192.0, 1.0, 224.0, 0.0, 0.0, 30.0, 144.0, 0.0, 0.0, 0.0, 1.708992500287881E9, 0.0, 2024-02-26 19:08:20.287
98.0, 187500.0, 187500.0, 187500.0, 187500.0, -11787.61712165083, 187500.0, 187500.0, -182796.27654508073, 0.06, 0.0, 0.978, 192.0, 0.0, 0.0, 0.0, 0.0, 0.0, 0.0, 0.0, 0.0, 0.0, 1.708992500291883E9, 0.0, 2024-02-26 19:08:20.291
99.0, 187500.0, 187500.0, 187500.0, 187500.0, -11867.479904589642, 187500.0, 187500.0, -182707.60717482652, 0.06, 0.0, 0.978, 192.0, 0.0, 0.0, 0.0, 0.0, 0.0, 0.0, 0.0, 0.0, 0.0, 1.708992500295923E9, 0.0, 2024-02-26 19:08:20.295
100.0, 187500.0, 187500.0, 187500.0, 187500.0, -11825.793901180496, 187500.0, 187500.0, -182659.2156480808, 0.06, 0.0, 0.978, 192.0, 0.0, 0.0, 0.0, 0.0, 0.0, 0.0, 0.0, 0.0, 0.0, 1.708992500298924E9, 0.0, 2024-02-26 19:08:20.298
101.0, 187500.0, 187500.0, 187500.0, 187500.0, -11715.041007404448, 187500.0, 187500.0, -182784.16189958598, 0.06, 0.0, 0.978, 192.0, 0.0, 0.0, 0.0, 0.0, 0.0, 0.0, 0.0, 0.0, 0.0, 1.708992500302923E9, 0.0, 2024-02-26 19:08:20.302
102.0, 187500.0, 187500.0, 187500.0, 187500.0, -11741.594879817352, 187500.0, 187500.0, -182808.86057720907, 0.06, 0.0, 0.978, 192.0, 0.0, 0.0, 0.0, 0.0, 0.0, 0.0, 0.0, 0.0, 0.0, 1.708992500306919E9, 0.0, 2024-02-26 19:08:20.306
103.0, 187500.0, 187500.0, 187500.0, 187500.0, -11853.286546860523, 187500.0, 187500.0, -182712.9268900069, 0.06, 0.0, 0.978, 192.0, 0.0, 0.0, 0.0, 0.0, 0.0, 0.0, 0.0, 0.0, 0.0, 1.708992500311916E9, 0.0, 2024-02-26 19:08:20.311
104.0, 187500.0, 187500.0, 187500.0, 187500.0, -11839.182596109224, 187500.0, 187500.0, -182700.83459625658, 0.06, 0.0, 0.978, 192.0, 0.0, 0.0, 0.0, 0.0, 0.0, 0.0, 0.0, 0.0, 0.0, 1.708992500315941E9, 0.0, 2024-02-26 19:08:20.315
105.0, 187500.0, 187500.0, 187500.0, 187500.0, -11751.876682266795, 187500.0, 187500.0, -182783.75956818578, 0.06, 0.0, 0.978, 192.0, 0.0, 0.0, 0.0, 0.0, 0.0, 0.0, 0.0, 0.0, 0.0, 1.70899250031993E9, 0.0, 2024-02-26 19:08:20.319
106.0, 187500.0, 187500.0, 187500.0, 187500.0, -11709.117795123791, 187500.0, 187500.0, -182829.51358908578, 0.06, -0.004, 0.98, 192.0, 1.0, 224.0, 255.0, 224.0, 30.0, 160.0, 0.0, 0.0, 0.0, 1.708992500323928E9, 0.0, 2024-02-26 19:08:20.323
107.0, 187500.0, 187500.0, 187500.0, 187500.0, -11851.476055559642, 187500.0, 187500.0, -182718.40306739844, 0.06, -0.004, 0.98, 192.0, 0.0, 0.0, 0.0, 0.0, 0.0, 0.0, 0.0, 0.0, 0.0, 1.708992500326929E9, 0.0, 2024-02-26 19:08:20.326
108.0, 187500.0, 187500.0, 187500.0, 187500.0, -11860.193235897212, 187500.0, 187500.0, -182634.8075431356, 0.06, -0.004, 0.98, 192.0, 0.0, 0.0, 0.0, 0.0, 0.0, 0.0, 0.0, 0.0, 0.0, 1.708992500330928E9, 0.0, 2024-02-26 19:08:20.330
109.0, 187500.0, 187500.0, 187500.0, 187500.0, -11801.586961935398, 187500.0, 187500.0, -182722.4263814004, 0.06, -0.004, 0.98, 192.0, 0.0, 0.0, 0.0, 0.0, 0.0, 0.0, 0.0, 0.0, 0.0, 1.708992500334935E9, 0.0, 2024-02-26 19:08:20.334
110.0, 187500.0, 187500.0, 187500.0, 187500.0, -11727.669743021697, 187500.0, 187500.0, -182795.404827047, 0.06, -0.004, 0.98, 192.0, 0.0, 0.0, 0.0, 0.0, 0.0, 0.0, 0.0, 0.0, 0.0, 1.708992500338929E9, 0.0, 2024-02-26 19:08:20.338
111.0, 187500.0, 187500.0, 187500.0, 187500.0, -11870.787962769027, 187500.0, 187500.0, -182740.86657057604, 0.06, -0.004, 0.98, 192.0, 0.0, 0.0, 0.0, 0.0, 0.0, 0.0, 0.0, 0.0, 0.0, 1.708992500343953E9, 0.0, 2024-02-26 19:08:20.343
112.0, 187500.0, 187500.0, 187500.0, 187500.0, -11893.832611302449, 187500.0, 187500.0, -182695.4701775873, 0.06, -0.004, 0.98, 192.0, 0.0, 0.0, 0.0, 0.0, 0.0, 0.0, 0.0, 0.0, 0.0, 1.708992500348045E9, 0.0, 2024-02-26 19:08:20.348
113.0, 187500.0, 187500.0, 187500.0, 187500.0, -11841.82010195495, 187500.0, 187500.0, -182715.76556155272, 0.06, -0.004, 0.98, 192.0, 0.0, 0.0, 0.0, 0.0, 0.0, 0.0, 0.0, 0.0, 0.0, 1.70899250035206E9, 0.0, 2024-02-26 19:08:20.352
114.0, 187500.0, 187500.0, 187500.0, 187500.0, -11737.146882670748, 187500.0, 187500.0, -182851.3512434186, 0.06, -0.004, 0.98, 192.0, 0.0, 0.0, 0.0, 0.0, 0.0, 0.0, 0.0, 0.0, 0.0, 1.708992500355062E9, 0.0, 2024-02-26 19:08:20.355
115.0, 187500.0, 187500.0, 187500.0, 187500.0, -11856.326384106444, 187500.0, 187500.0, -182782.17259432943, 0.06, -0.004, 0.98, 192.0, 0.0, 0.0, 0.0, 0.0, 0.0, 0.0, 0.0, 0.0, 0.0, 1.708992500359055E9, 0.0, 2024-02-26 19:08:20.359
116.0, 187500.0, 187500.0, 187500.0, 187500.0, -11912.183393500256, 187500.0, 187500.0, -182689.01052343973, 0.058, 0.0, 0.976, 192.0, 1.0, 208.0, 0.0, 0.0, 30.0, 128.0, 0.0, 0.0, 0.0, 1.708992500363031E9, 0.0, 2024-02-26 19:08:20.363
117.0, 187500.0, 187500.0, 187500.0, 187500.0, -11869.49156159062, 187500.0, 187500.0, -182695.7160467763, 0.058, 0.0, 0.976, 192.0, 0.0, 0.0, 0.0, 0.0, 0.0, 0.0, 0.0, 0.0, 0.0, 1.708992500367027E9, 0.0, 2024-02-26 19:08:20.367
118.0, 187500.0, 187500.0, 187500.0, 187500.0, -11741.08078969488, 187500.0, 187500.0, -182830.47471409736, 0.058, 0.0, 0.976, 192.0, 0.0, 0.0, 0.0, 0.0, 0.0, 0.0, 0.0, 0.0, 0.0, 1.708992500372032E9, 0.0, 2024-02-26 19:08:20.372
119.0, 187500.0, 187500.0, 187500.0, 187500.0, -11827.805558181473, 187500.0, 187500.0, -182790.5992019891, 0.058, 0.0, 0.976, 192.0, 0.0, 0.0, 0.0, 0.0, 0.0, 0.0, 0.0, 0.0, 0.0, 1.70899250037603E9, 0.0, 2024-02-26 19:08:20.376
120.0, 187500.0, 187500.0, 187500.0, 187500.0, -11900.828707316961, 187500.0, 187500.0, -182671.8667354425, 0.058, 0.0, 0.976, 192.0, 0.0, 0.0, 0.0, 0.0, 0.0, 0.0, 0.0, 0.0, 0.0, 1.708992500380026E9, 0.0, 2024-02-26 19:08:20.380
121.0, 187500.0, 187500.0, 187500.0, 187500.0, -11870.430334857743, 187500.0, 187500.0, -182671.75497672023, 0.058, 0.0, 0.976, 192.0, 0.0, 0.0, 0.0, 0.0, 0.0, 0.0, 0.0, 0.0, 0.0, 1.708992500383033E9, 0.0, 2024-02-26 19:08:20.383
122.0, 187500.0, 187500.0, 187500.0, 187500.0, -11746.892243253262, 187500.0, 187500.0, -182810.46990280985, 0.058, 0.0, 0.976, 192.0, 0.0, 0.0, 0.0, 0.0, 0.0, 0.0, 0.0, 0.0, 0.0, 1.708992500387027E9, 0.0, 2024-02-26 19:08:20.387
123.0, 187500.0, 187500.0, 187500.0, 187500.0, -11778.274092468511, 187500.0, 187500.0, -182825.73614427284, 0.058, 0.0, 0.976, 192.0, 0.0, 0.0, 0.0, 0.0, 0.0, 0.0, 0.0, 0.0, 0.0, 1.708992500391024E9, 0.0, 2024-02-26 19:08:20.391
124.0, 187500.0, 187500.0, 187500.0, 187500.0, -11888.468192633176, 187500.0, 187500.0, -182721.35349766654, 0.058, 0.0, 0.976, 192.0, 0.0, 0.0, 0.0, 0.0, 0.0, 0.0, 0.0, 0.0, 0.0, 1.70899250039503E9, 0.0, 2024-02-26 19:08:20.395
125.0, 187500.0, 187500.0, 187500.0, 187500.0, -11867.166980167269, 187500.0, 187500.0, -182693.8608519865, 0.058, 0.0, 0.976, 192.0, 0.0, 0.0, 0.0, 0.0, 0.0, 0.0, 0.0, 0.0, 0.0, 1.708992500400023E9, 0.0, 2024-02-26 19:08:20.400
126.0, 187500.0, 187500.0, 187500.0, 187500.0, -11776.932987801194, 187500.0, 187500.0, -182773.61187620307, 0.06, 0.006, 0.976, 192.0, 1.0, 224.0, 0.0, 48.0, 30.0, 128.0, 0.0, 0.0, 0.0, 1.708992500404046E9, 0.0, 2024-02-26 19:08:20.404
127.0, 187500.0, 187500.0, 187500.0, 187500.0, -11744.210033918624, 187500.0, 187500.0, -182854.94987427592, 0.06, 0.006, 0.976, 192.0, 0.0, 0.0, 0.0, 0.0, 0.0, 0.0, 0.0, 0.0, 0.0, 1.708992500408038E9, 0.0, 2024-02-26 19:08:20.408
128.0, 187500.0, 187500.0, 187500.0, 187500.0, -11872.978433725648, 187500.0, 187500.0, -182729.91421579293, 0.06, 0.006, 0.976, 192.0, 0.0, 0.0, 0.0, 0.0, 0.0, 0.0, 0.0, 0.0, 0.0, 1.708992500411045E9, 0.0, 2024-02-26 19:08:20.411
129.0, 187500.0, 187500.0, 187500.0, 187500.0, -11853.755933494083, 187500.0, 187500.0, -182685.83657572707, 0.06, 0.006, 0.976, 192.0, 0.0, 0.0, 0.0, 0.0, 0.0, 0.0, 0.0, 0.0, 0.0, 1.708992500415049E9, 0.0, 2024-02-26 19:08:20.415
130.0, 187500.0, 187500.0, 187500.0, 187500.0, -11753.597766589854, 187500.0, 187500.0, -182729.84716055956, 0.06, 0.006, 0.976, 192.0, 0.0, 0.0, 0.0, 0.0, 0.0, 0.0, 0.0, 0.0, 0.0, 1.708992500419043E9, 0.0, 2024-02-26 19:08:20.419
131.0, 187500.0, 187500.0, 187500.0, 187500.0, -11695.952617639616, 187500.0, 187500.0, -182846.74678406082, 0.06, 0.006, 0.976, 192.0, 0.0, 0.0, 0.0, 0.0, 0.0, 0.0, 0.0, 0.0, 0.0, 1.708992500423154E9, 0.0, 2024-02-26 19:08:20.423
132.0, 187500.0, 187500.0, 187500.0, 187500.0, -11838.065008886459, 187500.0, 187500.0, -182733.9822332838, 0.06, 0.006, 0.976, 192.0, 0.0, 0.0, 0.0, 0.0, 0.0, 0.0, 0.0, 0.0, 0.0, 1.708992500428051E9, 0.0, 2024-02-26 19:08:20.428
133.0, 187500.0, 187500.0, 187500.0, 187500.0, -11841.14954962129, 187500.0, 187500.0, -182685.99303793826, 0.06, 0.006, 0.976, 192.0, 0.0, 0.0, 0.0, 0.0, 0.0, 0.0, 0.0, 0.0, 0.0, 1.708992500432037E9, 0.0, 2024-02-26 19:08:20.432
134.0, 187500.0, 187500.0, 187500.0, 187500.0, -11769.020470264015, 187500.0, 187500.0, -182735.1892274844, 0.06, 0.006, 0.976, 192.0, 0.0, 0.0, 0.0, 0.0, 0.0, 0.0, 0.0, 0.0, 0.0, 1.708992500435038E9, 0.0, 2024-02-26 19:08:20.435
135.0, 187500.0, 187500.0, 187500.0, 187500.0, -11676.327786007856, 187500.0, 187500.0, -182856.69331034343, 0.06, 0.006, 0.976, 192.0, 0.0, 0.0, 0.0, 0.0, 0.0, 0.0, 0.0, 0.0, 0.0, 1.708992500439034E9, 0.0, 2024-02-26 19:08:20.439
136.0, 187500.0, 187500.0, 187500.0, 187500.0, -11802.324569502422, 187500.0, 187500.0, -182754.99287307178, 0.058, 0.002, 0.978, 192.0, 1.0, 208.0, 0.0, 16.0, 30.0, 144.0, 0.0, 0.0, 0.0, 1.708992500443032E9, 0.0, 2024-02-26 19:08:20.443
137.0, 187500.0, 187500.0, 187500.0, 187500.0, -11833.86288092886, 187500.0, 187500.0, -182684.27195361519, 0.058, 0.002, 0.978, 192.0, 0.0, 0.0, 0.0, 0.0, 0.0, 0.0, 0.0, 0.0, 0.0, 1.708992500447044E9, 0.0, 2024-02-26 19:08:20.447
138.0, 187500.0, 187500.0, 187500.0, 187500.0, -11781.202170992157, 187500.0, 187500.0, -182718.04543948718, 0.058, 0.002, 0.978, 192.0, 0.0, 0.0, 0.0, 0.0, 0.0, 0.0, 0.0, 0.0, 0.0, 1.70899250045205E9, 0.0, 2024-02-26 19:08:20.452
139.0, 187500.0, 187500.0, 187500.0, 187500.0, -11654.668945630663, 187500.0, 187500.0, -182850.6136358516, 0.058, 0.002, 0.978, 192.0, 0.0, 0.0, 0.0, 0.0, 0.0, 0.0, 0.0, 0.0, 0.0, 1.708992500456045E9, 0.0, 2024-02-26 19:08:20.456
140.0, 187500.0, 187500.0, 187500.0, 187500.0, -11759.386868403777, 187500.0, 187500.0, -182736.44092517387, 0.058, 0.002, 0.978, 192.0, 0.0, 0.0, 0.0, 0.0, 0.0, 0.0, 0.0, 0.0, 0.0, 1.708992500460052E9, 0.0, 2024-02-26 19:08:20.460
141.0, 187500.0, 187500.0, 187500.0, 187500.0, -11811.041749839993, 187500.0, 187500.0, -182650.7219851878, 0.058, 0.002, 0.978, 192.0, 0.0, 0.0, 0.0, 0.0, 0.0, 0.0, 0.0, 0.0, 0.0, 1.70899250046305E9, 0.0, 2024-02-26 19:08:20.463
142.0, 187500.0, 187500.0, 187500.0, 187500.0, -11769.288691197478, 187500.0, 187500.0, -182663.52953476066, 0.058, 0.002, 0.978, 192.0, 0.0, 0.0, 0.0, 0.0, 0.0, 0.0, 0.0, 0.0, 0.0, 1.708992500467048E9, 0.0, 2024-02-26 19:08:20.467
143.0, 187500.0, 187500.0, 187500.0, 187500.0, -11643.671887358652, 187500.0, 187500.0, -182801.9985916613, 0.058, 0.002, 0.978, 192.0, 0.0, 0.0, 0.0, 0.0, 0.0, 0.0, 0.0, 0.0, 0.0, 1.708992500471054E9, 0.0, 2024-02-26 19:08:20.471
144.0, 187500.0, 187500.0, 187500.0, 187500.0, -11702.45697527611, 187500.0, 187500.0, -182790.5544985002, 0.058, 0.002, 0.978, 192.0, 0.0, 0.0, 0.0, 0.0, 0.0, 0.0, 0.0, 0.0, 0.0, 1.708992500475046E9, 0.0, 2024-02-26 19:08:20.475
145.0, 187500.0, 187500.0, 187500.0, 187500.0, -11776.061269767437, 187500.0, 187500.0, -182698.3759043665, 0.058, 0.002, 0.978, 192.0, 0.0, 0.0, 0.0, 0.0, 0.0, 0.0, 0.0, 0.0, 0.0, 1.708992500479094E9, 0.0, 2024-02-26 19:08:20.479
146.0, 187500.0, 187500.0, 187500.0, 187500.0, -11738.376228615789, 187500.0, 187500.0, -182682.03677916966, 0.064, 0.002, 0.982, 192.0, 2.0, 0.0, 0.0, 16.0, 30.0, 176.0, 0.0, 0.0, 0.0, 1.708992500484089E9, 0.0, 2024-02-26 19:08:20.484
147.0, 187500.0, 187500.0, 187500.0, 187500.0, -11616.53686958991, 187500.0, 187500.0, -182789.03457987722, 0.064, 0.002, 0.982, 192.0, 0.0, 0.0, 0.0, 0.0, 0.0, 0.0, 0.0, 0.0, 0.0, 1.708992500488092E9, 0.0, 2024-02-26 19:08:20.488
148.0, 187500.0, 187500.0, 187500.0, 187500.0, -11652.701992118597, 187500.0, 187500.0, -182782.93255364092, 0.064, 0.002, 0.982, 192.0, 0.0, 0.0, 0.0, 0.0, 0.0, 0.0, 0.0, 0.0, 0.0, 1.708992500491088E9, 0.0, 2024-02-26 19:08:20.491
149.0, 187500.0, 187500.0, 187500.0, 187500.0, -11749.3732868878, 187500.0, 187500.0, -182672.20201160933, 0.064, 0.002, 0.982, 192.0, 0.0, 0.0, 0.0, 0.0, 0.0, 0.0, 0.0, 0.0, 0.0, 1.708992500495092E9, 0.0, 2024-02-26 19:08:20.495
150.0, 187500.0, 187500.0, 187500.0, 187500.0, -11700.378263041766, 187500.0, 187500.0, -182608.49953991172, 0.064, 0.002, 0.982, 192.0, 0.0, 0.0, 0.0, 0.0, 0.0, 0.0, 0.0, 0.0, 0.0, 1.708992500499112E9, 0.0, 2024-02-26 19:08:20.499
151.0, 187500.0, 187500.0, 187500.0, 187500.0, -11594.878029212718, 187500.0, 187500.0, -182757.04923356167, 0.064, 0.002, 0.982, 192.0, 0.0, 0.0, 0.0, 0.0, 0.0, 0.0, 0.0, 0.0, 0.0, 1.708992500503098E9, 0.0, 2024-02-26 19:08:20.503
152.0, 187500.0, 187500.0, 187500.0, 187500.0, -11573.643871980175, 187500.0, 187500.0, -182837.4037548785, 0.064, 0.002, 0.982, 192.0, 0.0, 0.0, 0.0, 0.0, 0.0, 0.0, 0.0, 0.0, 0.0, 1.708992500507094E9, 0.0, 2024-02-26 19:08:20.507
153.0, 187500.0, 187500.0, 187500.0, 187500.0, -11708.067263134393, 187500.0, 187500.0, -182718.7830470542, 0.064, 0.002, 0.982, 192.0, 0.0, 0.0, 0.0, 0.0, 0.0, 0.0, 0.0, 0.0, 0.0, 1.708992500512148E9, 0.0, 2024-02-26 19:08:20.512
154.0, 187500.0, 187500.0, 187500.0, 187500.0, -11711.665893991696, 187500.0, 187500.0, -182669.43039529686, 0.064, 0.002, 0.982, 192.0, 0.0, 0.0, 0.0, 0.0, 0.0, 0.0, 0.0, 0.0, 0.0, 1.708992500516109E9, 0.0, 2024-02-26 19:08:20.516
155.0, 187500.0, 187500.0, 187500.0, 187500.0, -11628.606811595775, 187500.0, 187500.0, -182737.7820298412, 0.064, 0.002, 0.982, 192.0, 0.0, 0.0, 0.0, 0.0, 0.0, 0.0, 0.0, 0.0, 0.0, 1.708992500519098E9, 0.0, 2024-02-26 19:08:20.519
156.0, 187500.0, 187500.0, 187500.0, 187500.0, -11558.779961917397, 187500.0, 187500.0, -182862.52711564628, 0.066, 0.0, 0.984, 192.0, 2.0, 16.0, 0.0, 0.0, 30.0, 192.0, 0.0, 0.0, 0.0, 1.708992500523139E9, 0.0, 2024-02-26 19:08:20.523
157.0, 187500.0, 187500.0, 187500.0, 187500.0, -11697.226667073568, 187500.0, 187500.0, -182750.56722766964, 0.066, 0.0, 0.984, 192.0, 0.0, 0.0, 0.0, 0.0, 0.0, 0.0, 0.0, 0.0, 0.0, 1.708992500527125E9, 0.0, 2024-02-26 19:08:20.527
158.0, 187500.0, 187500.0, 187500.0, 187500.0, -11732.810644246418, 187500.0, 187500.0, -182685.18837513786, 0.066, 0.0, 0.984, 192.0, 0.0, 0.0, 0.0, 0.0, 0.0, 0.0, 0.0, 0.0, 0.0, 1.708992500531127E9, 0.0, 2024-02-26 19:08:20.531
159.0, 187500.0, 187500.0, 187500.0, 187500.0, -11675.456067974099, 187500.0, 187500.0, -182718.9395092654, 0.066, 0.0, 0.984, 192.0, 0.0, 0.0, 0.0, 0.0, 0.0, 0.0, 0.0, 0.0, 0.0, 1.708992500535244E9, 0.0, 2024-02-26 19:08:20.535
160.0, 187500.0, 187500.0, 187500.0, 187500.0, -11579.701194727564, 187500.0, 187500.0, -182820.72935351485, 0.066, 0.0, 0.984, 192.0, 0.0, 0.0, 0.0, 0.0, 0.0, 0.0, 0.0, 0.0, 0.0, 1.708992500540174E9, 0.0, 2024-02-26 19:08:20.540
161.0, 187500.0, 187500.0, 187500.0, 187500.0, -11705.809736944406, 187500.0, 187500.0, -182752.31066373715, 0.066, 0.0, 0.984, 192.0, 0.0, 0.0, 0.0, 0.0, 0.0, 0.0, 0.0, 0.0, 0.0, 1.708992500544161E9, 0.0, 2024-02-26 19:08:20.544
162.0, 187500.0, 187500.0, 187500.0, 187500.0, -11753.016621234015, 187500.0, 187500.0, -182686.75299724974, 0.066, 0.0, 0.984, 192.0, 0.0, 0.0, 0.0, 0.0, 0.0, 0.0, 0.0, 0.0, 0.0, 1.70899250054719E9, 0.0, 2024-02-26 19:08:20.547
163.0, 187500.0, 187500.0, 187500.0, 187500.0, -11698.478364763067, 187500.0, 187500.0, -182706.48958760378, 0.066, 0.0, 0.984, 192.0, 0.0, 0.0, 0.0, 0.0, 0.0, 0.0, 0.0, 0.0, 0.0, 1.70899250055119E9, 0.0, 2024-02-26 19:08:20.551
164.0, 187500.0, 187500.0, 187500.0, 187500.0, -11581.042299394883, 187500.0, 187500.0, -182847.4173363945, 0.066, 0.0, 0.984, 192.0, 0.0, 0.0, 0.0, 0.0, 0.0, 0.0, 0.0, 0.0, 0.0, 1.708992500555192E9, 0.0, 2024-02-26 19:08:20.555
165.0, 187500.0, 187500.0, 187500.0, 187500.0, -11693.829201916362, 187500.0, 187500.0, -182797.57294625914, 0.066, 0.0, 0.984, 192.0, 0.0, 0.0, 0.0, 0.0, 0.0, 0.0, 0.0, 0.0, 0.0, 1.708992500559178E9, 0.0, 2024-02-26 19:08:20.559
166.0, 187500.0, 187500.0, 187500.0, 187500.0, -11763.700755083652, 187500.0, 187500.0, -182695.8278054986, 0.064, 0.0, 0.984, 192.0, 2.0, 0.0, 0.0, 0.0, 30.0, 192.0, 0.0, 0.0, 0.0, 1.708992500563175E9, 0.0, 2024-02-26 19:08:20.563
167.0, 187500.0, 187500.0, 187500.0, 187500.0, -11722.908821452716, 187500.0, 187500.0, -182690.88806997397, 0.064, 0.0, 0.984, 192.0, 0.0, 0.0, 0.0, 0.0, 0.0, 0.0, 0.0, 0.0, 0.0, 1.708992500567173E9, 0.0, 2024-02-26 19:08:20.567
168.0, 187500.0, 187500.0, 187500.0, 187500.0, -11598.834287981306, 187500.0, 187500.0, -182827.904263485, 0.064, 0.0, 0.984, 192.0, 0.0, 0.0, 0.0, 0.0, 0.0, 0.0, 0.0, 0.0, 0.0, 1.708992500571173E9, 0.0, 2024-02-26 19:08:20.571
169.0, 187500.0, 187500.0, 187500.0, 187500.0, -11666.694184147618, 187500.0, 187500.0, -182812.83918772213, 0.064, 0.0, 0.984, 192.0, 0.0, 0.0, 0.0, 0.0, 0.0, 0.0, 0.0, 0.0, 0.0, 1.708992500574196E9, 0.0, 2024-02-26 19:08:20.574
170.0, 187500.0, 187500.0, 187500.0, 187500.0, -11769.109877241835, 187500.0, 187500.0, -182662.4119475379, 0.064, 0.0, 0.984, 192.0, 0.0, 0.0, 0.0, 0.0, 0.0, 0.0, 0.0, 0.0, 0.0, 1.708992500579178E9, 0.0, 2024-02-26 19:08:20.579
171.0, 187500.0, 187500.0, 187500.0, 187500.0, -11754.46948462361, 187500.0, 187500.0, -182659.48386901425, 0.064, 0.0, 0.984, 192.0, 0.0, 0.0, 0.0, 0.0, 0.0, 0.0, 0.0, 0.0, 0.0, 1.708992500583171E9, 0.0, 2024-02-26 19:08:20.583
172.0, 187500.0, 187500.0, 187500.0, 187500.0, -11648.87984381674, 187500.0, 187500.0, -182785.3465420421, 0.064, 0.0, 0.984, 192.0, 0.0, 0.0, 0.0, 0.0, 0.0, 0.0, 0.0, 0.0, 0.0, 1.708992500587186E9, 0.0, 2024-02-26 19:08:20.587
173.0, 187500.0, 187500.0, 187500.0, 187500.0, -11662.715573634574, 187500.0, 187500.0, -182818.96356570287, 0.064, 0.0, 0.984, 192.0, 0.0, 0.0, 0.0, 0.0, 0.0, 0.0, 0.0, 0.0, 0.0, 1.708992500591228E9, 0.0, 2024-02-26 19:08:20.591
174.0, 187500.0, 187500.0, 187500.0, 187500.0, -11788.511191429043, 187500.0, 187500.0, -182706.04255271467, 0.064, 0.0, 0.984, 192.0, 0.0, 0.0, 0.0, 0.0, 0.0, 0.0, 0.0, 0.0, 0.0, 1.708992500595243E9, 0.0, 2024-02-26 19:08:20.595
175.0, 187500.0, 187500.0, 187500.0, 187500.0, -11786.879514083805, 187500.0, 187500.0, -182672.29141858715, 0.064, 0.0, 0.984, 192.0, 0.0, 0.0, 0.0, 0.0, 0.0, 0.0, 0.0, 0.0, 0.0, 1.708992500599252E9, 0.0, 2024-02-26 19:08:20.599
176.0, 187500.0, 187500.0, 187500.0, 187500.0, -11686.475477990565, 187500.0, 187500.0, -182740.57599789812, 0.062, 0.0, 0.98, 192.0, 1.0, 240.0, 0.0, 0.0, 30.0, 160.0, 0.0, 0.0, 0.0, 1.708992500602197E9, 0.0, 2024-02-26 19:08:20.602
177.0, 187500.0, 187500.0, 187500.0, 187500.0, -11612.960590477061, 187500.0, 187500.0, -182843.2152084369, 0.062, 0.0, 0.98, 192.0, 0.0, 0.0, 0.0, 0.0, 0.0, 0.0, 0.0, 0.0, 0.0, 1.708992500607242E9, 0.0, 2024-02-26 19:08:20.607
178.0, 187500.0, 187500.0, 187500.0, 187500.0, -11744.791179274462, 187500.0, 187500.0, -182720.6829453329, 0.062, 0.0, 0.98, 192.0, 0.0, 0.0, 0.0, 0.0, 0.0, 0.0, 0.0, 0.0, 0.0, 1.708992500611228E9, 0.0, 2024-02-26 19:08:20.611
179.0, 187500.0, 187500.0, 187500.0, 187500.0, -11741.572528072898, 187500.0, 187500.0, -182670.5703342641, 0.062, 0.0, 0.98, 192.0, 0.0, 0.0, 0.0, 0.0, 0.0, 0.0, 0.0, 0.0, 0.0, 1.708992500615239E9, 0.0, 2024-02-26 19:08:20.615
180.0, 187500.0, 187500.0, 187500.0, 187500.0, -11657.462913687577, 187500.0, 187500.0, -182695.60428805405, 0.062, 0.0, 0.98, 192.0, 0.0, 0.0, 0.0, 0.0, 0.0, 0.0, 0.0, 0.0, 0.0, 1.708992500619242E9, 0.0, 2024-02-26 19:08:20.619
181.0, 187500.0, 187500.0, 187500.0, 187500.0, -11576.259026081447, 187500.0, 187500.0, -182800.61278350506, 0.062, 0.0, 0.98, 192.0, 0.0, 0.0, 0.0, 0.0, 0.0, 0.0, 0.0, 0.0, 0.0, 1.708992500623237E9, 0.0, 2024-02-26 19:08:20.623
182.0, 187500.0, 187500.0, 187500.0, 187500.0, -11711.397673058233, 187500.0, 187500.0, -182715.4302853859, 0.062, 0.0, 0.98, 192.0, 0.0, 0.0, 0.0, 0.0, 0.0, 0.0, 0.0, 0.0, 0.0, 1.708992500627255E9, 0.0, 2024-02-26 19:08:20.627
183.0, 187500.0, 187500.0, 187500.0, 187500.0, -11727.200356388135, 187500.0, 187500.0, -182628.7055168993, 0.062, 0.0, 0.98, 192.0, 0.0, 0.0, 0.0, 0.0, 0.0, 0.0, 0.0, 0.0, 0.0, 1.708992500630232E9, 0.0, 2024-02-26 19:08:20.630
184.0, 187500.0, 187500.0, 187500.0, 187500.0, -11665.040155057926, 187500.0, 187500.0, -182685.59070653806, 0.062, 0.0, 0.98, 192.0, 0.0, 0.0, 0.0, 0.0, 0.0, 0.0, 0.0, 0.0, 0.0, 1.708992500634239E9, 0.0, 2024-02-26 19:08:20.634
185.0, 187500.0, 187500.0, 187500.0, 187500.0, -11579.544732516377, 187500.0, 187500.0, -182838.2084176789, 0.066, 0.002, 0.978, 192.0, 2.0, 16.0, 0.0, 16.0, 30.0, 144.0, 0.0, 0.0, 0.0, 1.708992500639276E9, 0.0, 2024-02-26 19:08:20.639
186.0, 187500.0, 187500.0, 187500.0, 187500.0, -11688.464783247087, 187500.0, 187500.0, -182726.65086110245, 0.066, 0.002, 0.978, 192.0, 0.0, 0.0, 0.0, 0.0, 0.0, 0.0, 0.0, 0.0, 0.0, 1.708992500643274E9, 0.0, 2024-02-26 19:08:20.643
187.0, 187500.0, 187500.0, 187500.0, 187500.0, -11729.32377211139, 187500.0, 187500.0, -182620.59183366204, 0.066, 0.002, 0.978, 192.0, 0.0, 0.0, 0.0, 0.0, 0.0, 0.0, 0.0, 0.0, 0.0, 1.70899250064727E9, 0.0, 2024-02-26 19:08:20.647
188.0, 187500.0, 187500.0, 187500.0, 187500.0, -11687.950693124616, 187500.0, 187500.0, -182676.56060177812, 0.066, 0.002, 0.978, 192.0, 0.0, 0.0, 0.0, 0.0, 0.0, 0.0, 0.0, 0.0, 0.0, 1.708992500651271E9, 0.0, 2024-02-26 19:08:20.651
189.0, 187500.0, 187500.0, 187500.0, 187500.0, -11557.885892139184, 187500.0, 187500.0, -182837.87314151207, 0.066, 0.002, 0.978, 192.0, 0.0, 0.0, 0.0, 0.0, 0.0, 0.0, 0.0, 0.0, 0.0, 1.70899250065528E9, 0.0, 2024-02-26 19:08:20.655
190.0, 187500.0, 187500.0, 187500.0, 187500.0, -11642.286079202424, 187500.0, 187500.0, -182765.2299720323, 0.066, 0.002, 0.978, 192.0, 0.0, 0.0, 0.0, 0.0, 0.0, 0.0, 0.0, 0.0, 0.0, 1.708992500658281E9, 0.0, 2024-02-26 19:08:20.658
191.0, 187500.0, 187500.0, 187500.0, 187500.0, -11709.65423699072, 187500.0, 187500.0, -182660.78027019266, 0.066, 0.002, 0.978, 192.0, 0.0, 0.0, 0.0, 0.0, 0.0, 0.0, 0.0, 0.0, 0.0, 1.708992500663394E9, 0.0, 2024-02-26 19:08:20.663
192.0, 187500.0, 187500.0, 187500.0, 187500.0, -11675.768992396474, 187500.0, 187500.0, -182662.7248719603, 0.066, 0.002, 0.978, 192.0, 0.0, 0.0, 0.0, 0.0, 0.0, 0.0, 0.0, 0.0, 0.0, 1.708992500667297E9, 0.0, 2024-02-26 19:08:20.667
193.0, 187500.0, 187500.0, 187500.0, 187500.0, -11527.308705724325, 187500.0, 187500.0, -182822.8527692381, 0.066, 0.002, 0.978, 192.0, 0.0, 0.0, 0.0, 0.0, 0.0, 0.0, 0.0, 0.0, 0.0, 1.708992500671295E9, 0.0, 2024-02-26 19:08:20.671
194.0, 187500.0, 187500.0, 187500.0, 187500.0, -11583.702156985064, 187500.0, 187500.0, -182829.71475478588, 0.066, 0.002, 0.978, 192.0, 0.0, 0.0, 0.0, 0.0, 0.0, 0.0, 0.0, 0.0, 0.0, 1.708992500675283E9, 0.0, 2024-02-26 19:08:20.675
195.0, 187500.0, 187500.0, 187500.0, 187500.0, -11704.759204955008, 187500.0, 187500.0, -182701.43809335688, 0.068, 0.002, 0.984, 192.0, 2.0, 32.0, 0.0, 16.0, 30.0, 192.0, 0.0, 0.0, 0.0, 1.708992500679471E9, 0.0, 2024-02-26 19:08:20.679
196.0, 187500.0, 187500.0, 187500.0, 187500.0, -11665.241320758025, 187500.0, 187500.0, -182655.4605550123, 0.068, 0.002, 0.984, 192.0, 0.0, 0.0, 0.0, 0.0, 0.0, 0.0, 0.0, 0.0, 0.0, 1.708992500683299E9, 0.0, 2024-02-26 19:08:20.683
197.0, 187500.0, 187500.0, 187500.0, 187500.0, -11549.146360057159, 187500.0, 187500.0, -182753.47295444884, 0.068, 0.002, 0.984, 192.0, 0.0, 0.0, 0.0, 0.0, 0.0, 0.0, 0.0, 0.0, 0.0, 1.70899250068635E9, 0.0, 2024-02-26 19:08:20.686
198.0, 187500.0, 187500.0, 187500.0, 187500.0, -11548.721676912508, 187500.0, 187500.0, -182821.82458899316, 0.068, 0.002, 0.984, 192.0, 0.0, 0.0, 0.0, 0.0, 0.0, 0.0, 0.0, 0.0, 0.0, 1.708992500690336E9, 0.0, 2024-02-26 19:08:20.690
199.0, 187500.0, 187500.0, 187500.0, 187500.0, -11664.503713191, 187500.0, 187500.0, -182672.73845347625, 0.068, 0.002, 0.984, 192.0, 0.0, 0.0, 0.0, 0.0, 0.0, 0.0, 0.0, 0.0, 0.0, 1.708992500695352E9, 0.0, 2024-02-26 19:08:20.695
200.0, 187500.0, 187500.0, 187500.0, 187500.0, -11650.042134528416, 187500.0, 187500.0, -182617.26142373818, 0.068, 0.002, 0.984, 192.0, 0.0, 0.0, 0.0, 0.0, 0.0, 0.0, 0.0, 0.0, 0.0, 1.708992500699348E9, 0.0, 2024-02-26 19:08:20.699
201.0, 187500.0, 187500.0, 187500.0, 187500.0, -11530.080322036782, 187500.0, 187500.0, -182611.60643239098, 0.068, 0.002, 0.984, 192.0, 0.0, 0.0, 0.0, 0.0, 0.0, 0.0, 0.0, 0.0, 0.0, 1.708992500703331E9, 0.0, 2024-02-26 19:08:20.703
202.0, 187500.0, 187500.0, 187500.0, 187500.0, -11486.092088948739, 187500.0, 187500.0, -182796.5000625253, 0.068, 0.002, 0.984, 192.0, 0.0, 0.0, 0.0, 0.0, 0.0, 0.0, 0.0, 0.0, 0.0, 1.708992500707332E9, 0.0, 2024-02-26 19:08:20.707
203.0, 187500.0, 187500.0, 187500.0, 187500.0, -11634.3959134097, 187500.0, 187500.0, -182700.94635497886, 0.068, 0.002, 0.984, 192.0, 0.0, 0.0, 0.0, 0.0, 0.0, 0.0, 0.0, 0.0, 0.0, 1.70899250071134E9, 0.0, 2024-02-26 19:08:20.711
204.0, 187500.0, 187500.0, 187500.0, 187500.0, -11649.460989172578, 187500.0, 187500.0, -182660.04266262564, 0.068, 0.002, 0.984, 192.0, 0.0, 0.0, 0.0, 0.0, 0.0, 0.0, 0.0, 0.0, 0.0, 1.708992500714333E9, 0.0, 2024-02-26 19:08:20.714
205.0, 187500.0, 187500.0, 187500.0, 187500.0, -11588.95481693206, 187500.0, 187500.0, -182720.01239299923, 0.062, 0.01, 0.984, 192.0, 1.0, 240.0, 0.0, 80.0, 30.0, 192.0, 0.0, 0.0, 0.0, 1.708992500718335E9, 0.0, 2024-02-26 19:08:20.718
206.0, 187500.0, 187500.0, 187500.0, 187500.0, -11509.270847948892, 187500.0, 187500.0, -182818.24830988032, 0.062, 0.01, 0.984, 192.0, 0.0, 0.0, 0.0, 0.0, 0.0, 0.0, 0.0, 0.0, 0.0, 1.708992500723337E9, 0.0, 2024-02-26 19:08:20.723
207.0, 187500.0, 187500.0, 187500.0, 187500.0, -11649.63980312822, 187500.0, 187500.0, -182724.5274453792, 0.062, 0.01, 0.984, 192.0, 0.0, 0.0, 0.0, 0.0, 0.0, 0.0, 0.0, 0.0, 0.0, 1.708992500727352E9, 0.0, 2024-02-26 19:08:20.727
208.0, 187500.0, 187500.0, 187500.0, 187500.0, -11689.31414953639, 187500.0, 187500.0, -182646.58691246354, 0.062, 0.01, 0.984, 192.0, 0.0, 0.0, 0.0, 0.0, 0.0, 0.0, 0.0, 0.0, 0.0, 1.708992500731381E9, 0.0, 2024-02-26 19:08:20.731
209.0, 187500.0, 187500.0, 187500.0, 187500.0, -11639.894442545707, 187500.0, 187500.0, -182687.37884609448, 0.062, 0.01, 0.984, 192.0, 0.0, 0.0, 0.0, 0.0, 0.0, 0.0, 0.0, 0.0, 0.0, 1.708992500734385E9, 0.0, 2024-02-26 19:08:20.734
210.0, 187500.0, 187500.0, 187500.0, 187500.0, -11521.13962425466, 187500.0, 187500.0, -182784.3407135416, 0.062, 0.01, 0.984, 192.0, 0.0, 0.0, 0.0, 0.0, 0.0, 0.0, 0.0, 0.0, 0.0, 1.708992500738378E9, 0.0, 2024-02-26 19:08:20.738
211.0, 187500.0, 187500.0, 187500.0, 187500.0, -11620.58253533632, 187500.0, 187500.0, -182721.7781808112, 0.062, 0.01, 0.984, 192.0, 0.0, 0.0, 0.0, 0.0, 0.0, 0.0, 0.0, 0.0, 0.0, 1.708992500744387E9, 0.0, 2024-02-26 19:08:20.744
212.0, 187500.0, 187500.0, 187500.0, 187500.0, -11656.97117530956, 187500.0, 187500.0, -182639.27789202667, 0.062, 0.01, 0.984, 192.0, 0.0, 0.0, 0.0, 0.0, 0.0, 0.0, 0.0, 0.0, 0.0, 1.708992500747389E9, 0.0, 2024-02-26 19:08:20.747
213.0, 187500.0, 187500.0, 187500.0, 187500.0, -11606.500936329478, 187500.0, 187500.0, -182639.52376121568, 0.062, 0.01, 0.984, 192.0, 0.0, 0.0, 0.0, 0.0, 0.0, 0.0, 0.0, 0.0, 0.0, 1.708992500751357E9, 0.0, 2024-02-26 19:08:20.751
214.0, 187500.0, 187500.0, 187500.0, 187500.0, -11475.989100454939, 187500.0, 187500.0, -182788.7887106882, 0.062, 0.01, 0.984, 192.0, 0.0, 0.0, 0.0, 0.0, 0.0, 0.0, 0.0, 0.0, 0.0, 1.708992500755357E9, 0.0, 2024-02-26 19:08:20.755
215.0, 187500.0, 187500.0, 187500.0, 187500.0, -11551.33683101378, 187500.0, 187500.0, -182777.16580357146, 0.062, 0.002, 0.98, 192.0, 1.0, 240.0, 0.0, 16.0, 30.0, 160.0, 0.0, 0.0, 0.0, 1.708992500759359E9, 0.0, 2024-02-26 19:08:20.759
216.0, 187500.0, 187500.0, 187500.0, 187500.0, -11630.618468596753, 187500.0, 187500.0, -182679.68984600186, 0.062, 0.002, 0.98, 192.0, 0.0, 0.0, 0.0, 0.0, 0.0, 0.0, 0.0, 0.0, 0.0, 1.708992500762402E9, 0.0, 2024-02-26 19:08:20.762
217.0, 187500.0, 187500.0, 187500.0, 187500.0, -11598.051976925371, 187500.0, 187500.0, -182655.03587186764, 0.062, 0.002, 0.98, 192.0, 0.0, 0.0, 0.0, 0.0, 0.0, 0.0, 0.0, 0.0, 0.0, 1.708992500766409E9, 0.0, 2024-02-26 19:08:20.766
218.0, 187500.0, 187500.0, 187500.0, 187500.0, -11473.753926009409, 187500.0, 187500.0, -182782.2843530517, 0.062, 0.002, 0.98, 192.0, 0.0, 0.0, 0.0, 0.0, 0.0, 0.0, 0.0, 0.0, 0.0, 1.708992500770408E9, 0.0, 2024-02-26 19:08:20.770
219.0, 187500.0, 187500.0, 187500.0, 187500.0, -11508.667350848598, 187500.0, 187500.0, -182771.15318431298, 0.062, 0.002, 0.98, 192.0, 0.0, 0.0, 0.0, 0.0, 0.0, 0.0, 0.0, 0.0, 0.0, 1.708992500774397E9, 0.0, 2024-02-26 19:08:20.774
220.0, 187500.0, 187500.0, 187500.0, 187500.0, -11616.000427722982, 187500.0, 187500.0, -182650.3196537876, 0.062, 0.002, 0.98, 192.0, 0.0, 0.0, 0.0, 0.0, 0.0, 0.0, 0.0, 0.0, 0.0, 1.708992500778412E9, 0.0, 2024-02-26 19:08:20.778
221.0, 187500.0, 187500.0, 187500.0, 187500.0, -11601.874125227228, 187500.0, 187500.0, -182603.78332183164, 0.062, 0.002, 0.98, 192.0, 0.0, 0.0, 0.0, 0.0, 0.0, 0.0, 0.0, 0.0, 0.0, 1.70899250078341E9, 0.0, 2024-02-26 19:08:20.783
222.0, 187500.0, 187500.0, 187500.0, 187500.0, -11505.42634790258, 187500.0, 187500.0, -182709.06003821612, 0.062, 0.002, 0.98, 192.0, 0.0, 0.0, 0.0, 0.0, 0.0, 0.0, 0.0, 0.0, 0.0, 1.708992500787406E9, 0.0, 2024-02-26 19:08:20.787
223.0, 187500.0, 187500.0, 187500.0, 187500.0, -11471.898731219619, 187500.0, 187500.0, -182795.38247530253, 0.062, 0.002, 0.98, 192.0, 0.0, 0.0, 0.0, 0.0, 0.0, 0.0, 0.0, 0.0, 0.0, 1.708992500790402E9, 0.0, 2024-02-26 19:08:20.790
224.0, 187500.0, 187500.0, 187500.0, 187500.0, -11596.53205830241, 187500.0, 187500.0, -182702.95801197982, 0.062, 0.002, 0.98, 192.0, 0.0, 0.0, 0.0, 0.0, 0.0, 0.0, 0.0, 0.0, 0.0, 1.708992500794424E9, 0.0, 2024-02-26 19:08:20.794
225.0, 187500.0, 187500.0, 187500.0, 187500.0, -11582.584569762299, 187500.0, 187500.0, -182662.07667137106, 0.064, 0.0, 0.98, 192.0, 2.0, 0.0, 0.0, 0.0, 30.0, 160.0, 0.0, 0.0, 0.0, 1.708992500798428E9, 0.0, 2024-02-26 19:08:20.798
226.0, 187500.0, 187500.0, 187500.0, 187500.0, -11505.806327558319, 187500.0, 187500.0, -182686.97651469428, 0.064, 0.0, 0.98, 192.0, 0.0, 0.0, 0.0, 0.0, 0.0, 0.0, 0.0, 0.0, 0.0, 1.708992500802405E9, 0.0, 2024-02-26 19:08:20.802
227.0, 187500.0, 187500.0, 187500.0, 187500.0, -11437.16412033607, 187500.0, 187500.0, -182805.61957426305, 0.064, 0.0, 0.98, 192.0, 0.0, 0.0, 0.0, 0.0, 0.0, 0.0, 0.0, 0.0, 0.0, 1.708992500806402E9, 0.0, 2024-02-26 19:08:20.806
228.0, 187500.0, 187500.0, 187500.0, 187500.0, -11569.128819600204, 187500.0, 187500.0, -182706.4225323704, 0.064, 0.0, 0.98, 192.0, 0.0, 0.0, 0.0, 0.0, 0.0, 0.0, 0.0, 0.0, 0.0, 1.708992500811404E9, 0.0, 2024-02-26 19:08:20.811
229.0, 187500.0, 187500.0, 187500.0, 187500.0, -11581.645796495175, 187500.0, 187500.0, -182663.23896208275, 0.064, 0.0, 0.98, 192.0, 0.0, 0.0, 0.0, 0.0, 0.0, 0.0, 0.0, 0.0, 0.0, 1.708992500815413E9, 0.0, 2024-02-26 19:08:20.815
230.0, 187500.0, 187500.0, 187500.0, 187500.0, -11515.529336396377, 187500.0, 187500.0, -182681.47798555827, 0.064, 0.0, 0.98, 192.0, 0.0, 0.0, 0.0, 0.0, 0.0, 0.0, 0.0, 0.0, 0.0, 1.708992500818423E9, 0.0, 2024-02-26 19:08:20.818
231.0, 187500.0, 187500.0, 187500.0, 187500.0, -11426.748207419898, 187500.0, 187500.0, -182812.59331853312, 0.064, 0.0, 0.98, 192.0, 0.0, 0.0, 0.0, 0.0, 0.0, 0.0, 0.0, 0.0, 0.0, 1.708992500822411E9, 0.0, 2024-02-26 19:08:20.822
232.0, 187500.0, 187500.0, 187500.0, 187500.0, -11567.519493999422, 187500.0, 187500.0, -182730.92004429342, 0.064, 0.0, 0.98, 192.0, 0.0, 0.0, 0.0, 0.0, 0.0, 0.0, 0.0, 0.0, 0.0, 1.708992500826405E9, 0.0, 2024-02-26 19:08:20.826
233.0, 187500.0, 187500.0, 187500.0, 187500.0, -11608.847869497284, 187500.0, 187500.0, -182665.13886036145, 0.064, 0.0, 0.98, 192.0, 0.0, 0.0, 0.0, 0.0, 0.0, 0.0, 0.0, 0.0, 0.0, 1.70899250083045E9, 0.0, 2024-02-26 19:08:20.830
234.0, 187500.0, 187500.0, 187500.0, 187500.0, -11551.985031602982, 187500.0, 187500.0, -182690.8657182295, 0.064, 0.0, 0.98, 192.0, 0.0, 0.0, 0.0, 0.0, 0.0, 0.0, 0.0, 0.0, 0.0, 1.708992500834446E9, 0.0, 2024-02-26 19:08:20.834
235.0, 187500.0, 187500.0, 187500.0, 187500.0, -11438.59463198121, 187500.0, 187500.0, -182829.98297571935, 0.066, 0.0, 0.98, 192.0, 2.0, 16.0, 0.0, 0.0, 30.0, 160.0, 0.0, 0.0, 0.0, 1.708992500839441E9, 0.0, 2024-02-26 19:08:20.839
236.0, 187500.0, 187500.0, 187500.0, 187500.0, -11538.439874463067, 187500.0, 187500.0, -182769.09682382309, 0.066, 0.0, 0.98, 192.0, 0.0, 0.0, 0.0, 0.0, 0.0, 0.0, 0.0, 0.0, 0.0, 1.70899250084245E9, 0.0, 2024-02-26 19:08:20.842
237.0, 187500.0, 187500.0, 187500.0, 187500.0, -11605.450404340078, 187500.0, 187500.0, -182660.2661800702, 0.066, 0.0, 0.98, 192.0, 0.0, 0.0, 0.0, 0.0, 0.0, 0.0, 0.0, 0.0, 0.0, 1.708992500846447E9, 0.0, 2024-02-26 19:08:20.846
238.0, 187500.0, 187500.0, 187500.0, 187500.0, -11574.3814795472, 187500.0, 187500.0, -182634.0028803352, 0.066, 0.0, 0.98, 192.0, 0.0, 0.0, 0.0, 0.0, 0.0, 0.0, 0.0, 0.0, 0.0, 1.708992500850475E9, 0.0, 2024-02-26 19:08:20.850
239.0, 187500.0, 187500.0, 187500.0, 187500.0, -11454.889053689129, 187500.0, 187500.0, -182779.91506813947, 0.066, 0.0, 0.98, 192.0, 0.0, 0.0, 0.0, 0.0, 0.0, 0.0, 0.0, 0.0, 0.0, 1.708992500854468E9, 0.0, 2024-02-26 19:08:20.854
240.0, 187500.0, 187500.0, 187500.0, 187500.0, -11531.6225924042, 187500.0, 187500.0, -182695.98426770978, 0.066, 0.0, 0.98, 192.0, 0.0, 0.0, 0.0, 0.0, 0.0, 0.0, 0.0, 0.0, 0.0, 1.70899250085847E9, 0.0, 2024-02-26 19:08:20.858
241.0, 187500.0, 187500.0, 187500.0, 187500.0, -11621.811881281363, 187500.0, 187500.0, -182638.94261585982, 0.066, 0.0, 0.98, 192.0, 0.0, 0.0, 0.0, 0.0, 0.0, 0.0, 0.0, 0.0, 0.0, 1.708992500862467E9, 0.0, 2024-02-26 19:08:20.862
242.0, 187500.0, 187500.0, 187500.0, 187500.0, -11586.29495934188, 187500.0, 187500.0, -182629.06314481059, 0.066, 0.0, 0.98, 192.0, 0.0, 0.0, 0.0, 0.0, 0.0, 0.0, 0.0, 0.0, 0.0, 1.708992500867473E9, 0.0, 2024-02-26 19:08:20.867
243.0, 187500.0, 187500.0, 187500.0, 187500.0, -11477.061984188795, 187500.0, 187500.0, -182800.92570792744, 0.066, 0.0, 0.98, 192.0, 0.0, 0.0, 0.0, 0.0, 0.0, 0.0, 0.0, 0.0, 0.0, 1.708992500870462E9, 0.0, 2024-02-26 19:08:20.870
244.0, 187500.0, 187500.0, 187500.0, 187500.0, -11509.002627015429, 187500.0, 187500.0, -182842.54465610321, 0.066, 0.0, 0.98, 192.0, 0.0, 0.0, 0.0, 0.0, 0.0, 0.0, 0.0, 0.0, 0.0, 1.708992500874453E9, 0.0, 2024-02-26 19:08:20.874
245.0, 187500.0, 187500.0, 187500.0, 187500.0, -11632.361904664267, 187500.0, 187500.0, -182700.78989276767, 0.066, -0.004, 0.982, 192.0, 2.0, 16.0, 255.0, 224.0, 30.0, 176.0, 0.0, 0.0, 0.0, 1.708992500878474E9, 0.0, 2024-02-26 19:08:20.878
246.0, 187500.0, 187500.0, 187500.0, 187500.0, -11619.800224280385, 187500.0, 187500.0, -182643.88235138447, 0.066, -0.004, 0.982, 192.0, 0.0, 0.0, 0.0, 0.0, 0.0, 0.0, 0.0, 0.0, 0.0, 1.708992500882486E9, 0.0, 2024-02-26 19:08:20.882
247.0, 187500.0, 187500.0, 187500.0, 187500.0, -11518.390359686657, 187500.0, 187500.0, -182709.0153347272, 0.066, -0.004, 0.982, 192.0, 0.0, 0.0, 0.0, 0.0, 0.0, 0.0, 0.0, 0.0, 0.0, 1.708992500886525E9, 0.0, 2024-02-26 19:08:20.886
248.0, 187500.0, 187500.0, 187500.0, 187500.0, -11468.657728273598, 187500.0, 187500.0, -182775.7799954152, 0.066, -0.004, 0.982, 192.0, 0.0, 0.0, 0.0, 0.0, 0.0, 0.0, 0.0, 0.0, 0.0, 1.708992500890534E9, 0.0, 2024-02-26 19:08:20.890
249.0, 187500.0, 187500.0, 187500.0, 187500.0, -11583.948026174072, 187500.0, 187500.0, -182660.28853181464, 0.066, -0.004, 0.982, 192.0, 0.0, 0.0, 0.0, 0.0, 0.0, 0.0, 0.0, 0.0, 0.0, 1.708992500895513E9, 0.0, 2024-02-26 19:08:20.895
250.0, 187500.0, 187500.0, 187500.0, 187500.0, -11582.182238362104, 187500.0, 187500.0, -182631.87946461196, 0.066, -0.004, 0.982, 192.0, 0.0, 0.0, 0.0, 0.0, 0.0, 0.0, 0.0, 0.0, 0.0, 1.708992500898525E9, 0.0, 2024-02-26 19:08:20.898
251.0, 187500.0, 187500.0, 187500.0, 187500.0, -11495.636283831154, 187500.0, 187500.0, -182683.869622215, 0.066, -0.004, 0.982, 192.0, 0.0, 0.0, 0.0, 0.0, 0.0, 0.0, 0.0, 0.0, 0.0, 1.708992500902515E9, 0.0, 2024-02-26 19:08:20.902
252.0, 187500.0, 187500.0, 187500.0, 187500.0, -11413.40421598008, 187500.0, 187500.0, -182811.34162084362, 0.066, -0.004, 0.982, 192.0, 0.0, 0.0, 0.0, 0.0, 0.0, 0.0, 0.0, 0.0, 0.0, 1.708992500906522E9, 0.0, 2024-02-26 19:08:20.906
253.0, 187500.0, 187500.0, 187500.0, 187500.0, -11559.539921228878, 187500.0, 187500.0, -182696.8112822546, 0.066, -0.004, 0.982, 192.0, 0.0, 0.0, 0.0, 0.0, 0.0, 0.0, 0.0, 0.0, 0.0, 1.708992500910505E9, 0.0, 2024-02-26 19:08:20.910
254.0, 187500.0, 187500.0, 187500.0, 187500.0, -11576.996633648472, 187500.0, 187500.0, -182643.14474381742, 0.066, -0.004, 0.982, 192.0, 0.0, 0.0, 0.0, 0.0, 0.0, 0.0, 0.0, 0.0, 0.0, 1.708992500914504E9, 0.0, 2024-02-26 19:08:20.914
255.0, 187500.0, 187500.0, 187500.0, 187500.0, -11502.967656012495, 187500.0, 187500.0, -182690.12811066248, 0.06, 0.0, 0.982, 192.0, 1.0, 224.0, 0.0, 0.0, 30.0, 176.0, 0.0, 0.0, 0.0, 1.70899250091853E9, 0.0, 2024-02-26 19:08:20.918
0.0, 187500.0, 187500.0, 187500.0, 187500.0, -11382.692919098488, 187500.0, 187500.0, -182834.56508333268, 0.06, 0.0, 0.982, 192.0, 0.0, 0.0, 0.0, 0.0, 0.0, 0.0, 0.0, 0.0, 0.0, 1.708992500923527E9, 0.0, 2024-02-26 19:08:20.923
1.0, 187500.0, 187500.0, 187500.0, 187500.0, -11503.526449623878, 187500.0, 187500.0, -182731.61294837153, 0.06, 0.0, 0.982, 192.0, 0.0, 0.0, 0.0, 0.0, 0.0, 0.0, 0.0, 0.0, 0.0, 1.708992500926528E9, 0.0, 2024-02-26 19:08:20.926
2.0, 187500.0, 187500.0, 187500.0, 187500.0, -11537.836377362773, 187500.0, 187500.0, -182653.1583253334, 0.06, 0.0, 0.982, 192.0, 0.0, 0.0, 0.0, 0.0, 0.0, 0.0, 0.0, 0.0, 0.0, 1.708992500930551E9, 0.0, 2024-02-26 19:08:20.930
3.0, 187500.0, 187500.0, 187500.0, 187500.0, -11472.725745764465, 187500.0, 187500.0, -182637.48975247022, 0.06, 0.0, 0.982, 192.0, 0.0, 0.0, 0.0, 0.0, 0.0, 0.0, 0.0, 0.0, 0.0, 1.708992500934532E9, 0.0, 2024-02-26 19:08:20.934
4.0, 187500.0, 187500.0, 187500.0, 187500.0, -11337.877671465598, 187500.0, 187500.0, -182773.16484131396, 0.06, 0.0, 0.982, 192.0, 0.0, 0.0, 0.0, 0.0, 0.0, 0.0, 0.0, 0.0, 0.0, 1.708992500938528E9, 0.0, 2024-02-26 19:08:20.938
5.0, 187500.0, 187500.0, 187500.0, 187500.0, -11430.21272781047, 187500.0, 187500.0, -182710.8258260281, 0.06, 0.0, 0.982, 192.0, 0.0, 0.0, 0.0, 0.0, 0.0, 0.0, 0.0, 0.0, 0.0, 1.708992500942553E9, 0.0, 2024-02-26 19:08:20.942
6.0, 187500.0, 187500.0, 187500.0, 187500.0, -11500.061929233305, 187500.0, 187500.0, -182650.78904042114, 0.06, 0.0, 0.982, 192.0, 0.0, 0.0, 0.0, 0.0, 0.0, 0.0, 0.0, 0.0, 0.0, 1.70899250094653E9, 0.0, 2024-02-26 19:08:20.946
7.0, 187500.0, 187500.0, 187500.0, 187500.0, -11421.36143700617, 187500.0, 187500.0, -182605.37029568796, 0.06, 0.0, 0.982, 192.0, 0.0, 0.0, 0.0, 0.0, 0.0, 0.0, 0.0, 0.0, 0.0, 1.708992500951535E9, 0.0, 2024-02-26 19:08:20.951
8.0, 187500.0, 187500.0, 187500.0, 187500.0, -11272.14119102254, 187500.0, 187500.0, -182822.42808609345, 0.06, 0.0, 0.982, 192.0, 0.0, 0.0, 0.0, 0.0, 0.0, 0.0, 0.0, 0.0, 0.0, 1.708992500954532E9, 0.0, 2024-02-26 19:08:20.954
9.0, 187500.0, 187500.0, 187500.0, 187500.0, -11333.697895252455, 187500.0, 187500.0, -182837.3590513896, 0.06, -0.008, 0.984, 192.0, 1.0, 224.0, 255.0, 192.0, 30.0, 192.0, 0.0, 0.0, 0.0, 1.708992500958577E9, 0.0, 2024-02-26 19:08:20.958
10.0, 187500.0, 187500.0, 187500.0, 187500.0, -11429.87745164364, 187500.0, 187500.0, -182651.370185777, 0.06, -0.008, 0.984, 192.0, 0.0, 0.0, 0.0, 0.0, 0.0, 0.0, 0.0, 0.0, 0.0, 1.70899250096258E9, 0.0, 2024-02-26 19:08:20.962
11.0, 187500.0, 187500.0, 187500.0, 187500.0, -11399.88141058462, 187500.0, 187500.0, -182644.4187932514, 0.06, -0.008, 0.984, 192.0, 0.0, 0.0, 0.0, 0.0, 0.0, 0.0, 0.0, 0.0, 0.0, 1.708992500966603E9, 0.0, 2024-02-26 19:08:20.966
12.0, 187500.0, 187500.0, 187500.0, 187500.0, -11276.835057358154, 187500.0, 187500.0, -182759.91025685196, 0.06, -0.008, 0.984, 192.0, 0.0, 0.0, 0.0, 0.0, 0.0, 0.0, 0.0, 0.0, 0.0, 1.708992500970575E9, 0.0, 2024-02-26 19:08:20.970
13.0, 187500.0, 187500.0, 187500.0, 187500.0, -11269.838961343643, 187500.0, 187500.0, -182790.73331245582, 0.06, -0.008, 0.984, 192.0, 0.0, 0.0, 0.0, 0.0, 0.0, 0.0, 0.0, 0.0, 0.0, 1.708992500974576E9, 0.0, 2024-02-26 19:08:20.974
14.0, 187500.0, 187500.0, 187500.0, 187500.0, -11380.524799886323, 187500.0, 187500.0, -182657.80748818011, 0.06, -0.008, 0.984, 192.0, 0.0, 0.0, 0.0, 0.0, 0.0, 0.0, 0.0, 0.0, 0.0, 1.708992500978587E9, 0.0, 2024-02-26 19:08:20.978
15.0, 187500.0, 187500.0, 187500.0, 187500.0, -11369.885369525597, 187500.0, 187500.0, -182614.24393823673, 0.06, -0.008, 0.984, 192.0, 0.0, 0.0, 0.0, 0.0, 0.0, 0.0, 0.0, 0.0, 0.0, 1.708992500981577E9, 0.0, 2024-02-26 19:08:20.981
16.0, 187500.0, 187500.0, 187500.0, 187500.0, -11246.883719788042, 187500.0, 187500.0, -182680.67332275788, 0.06, -0.008, 0.984, 192.0, 0.0, 0.0, 0.0, 0.0, 0.0, 0.0, 0.0, 0.0, 0.0, 1.708992500985574E9, 0.0, 2024-02-26 19:08:20.985
17.0, 187500.0, 187500.0, 187500.0, 187500.0, -11203.588390778112, 187500.0, 187500.0, -182782.4855187518, 0.06, -0.008, 0.984, 192.0, 0.0, 0.0, 0.0, 0.0, 0.0, 0.0, 0.0, 0.0, 0.0, 1.708992500990571E9, 0.0, 2024-02-26 19:08:20.990
18.0, 187500.0, 187500.0, 187500.0, 187500.0, -11347.265404136826, 187500.0, 187500.0, -182687.04356992766, 0.056, -0.01, 0.98, 192.0, 1.0, 192.0, 255.0, 176.0, 30.0, 160.0, 0.0, 0.0, 0.0, 1.708992500994605E9, 0.0, 2024-02-26 19:08:20.994
19.0, 187500.0, 187500.0, 187500.0, 187500.0, -11356.787247274786, 187500.0, 187500.0, -182646.2516362967, 0.056, -0.01, 0.98, 192.0, 0.0, 0.0, 0.0, 0.0, 0.0, 0.0, 0.0, 0.0, 0.0, 1.708992500998634E9, 0.0, 2024-02-26 19:08:20.998
20.0, 187500.0, 187500.0, 187500.0, 187500.0, -11283.250008016827, 187500.0, 187500.0, -182683.08731115906, 0.056, -0.01, 0.98, 192.0, 0.0, 0.0, 0.0, 0.0, 0.0, 0.0, 0.0, 0.0, 0.0, 1.708992501002643E9, 0.0, 2024-02-26 19:08:21.002
21.0, 187500.0, 187500.0, 187500.0, 187500.0, -11194.02184415124, 187500.0, 187500.0, -182782.641980963, 0.056, -0.01, 0.98, 192.0, 0.0, 0.0, 0.0, 0.0, 0.0, 0.0, 0.0, 0.0, 0.0, 1.708992501007592E9, 0.0, 2024-02-26 19:08:21.007
22.0, 187500.0, 187500.0, 187500.0, 187500.0, -11322.924354424997, 187500.0, 187500.0, -182667.39638655144, 0.056, -0.01, 0.98, 192.0, 0.0, 0.0, 0.0, 0.0, 0.0, 0.0, 0.0, 0.0, 0.0, 1.708992501010647E9, 0.0, 2024-02-26 19:08:21.010
23.0, 187500.0, 187500.0, 187500.0, 187500.0, -11340.269308122315, 187500.0, 187500.0, -182589.32174316904, 0.056, -0.01, 0.98, 192.0, 0.0, 0.0, 0.0, 0.0, 0.0, 0.0, 0.0, 0.0, 0.0, 1.708992501013628E9, 0.0, 2024-02-26 19:08:21.013
24.0, 187500.0, 187500.0, 187500.0, 187500.0, -11270.397754955025, 187500.0, 187500.0, -182641.58012170557, 0.056, -0.01, 0.98, 192.0, 0.0, 0.0, 0.0, 0.0, 0.0, 0.0, 0.0, 0.0, 0.0, 1.708992501018659E9, 0.0, 2024-02-26 19:08:21.018
25.0, 187500.0, 187500.0, 187500.0, 187500.0, -11156.716782655332, 187500.0, 187500.0, -182774.77416691472, 0.056, -0.01, 0.98, 192.0, 0.0, 0.0, 0.0, 0.0, 0.0, 0.0, 0.0, 0.0, 0.0, 1.708992501022656E9, 0.0, 2024-02-26 19:08:21.022
26.0, 187500.0, 187500.0, 187500.0, 187500.0, -11283.85350511712, 187500.0, 187500.0, -182722.89576803398, 0.056, -0.01, 0.98, 192.0, 0.0, 0.0, 0.0, 0.0, 0.0, 0.0, 0.0, 0.0, 0.0, 1.708992501028651E9, 0.0, 2024-02-26 19:08:21.028
27.0, 187500.0, 187500.0, 187500.0, 187500.0, -11331.373313829103, 187500.0, 187500.0, -182592.6521530929, 0.056, -0.01, 0.98, 192.0, 0.0, 0.0, 0.0, 0.0, 0.0, 0.0, 0.0, 0.0, 0.0, 1.708992501031647E9, 0.0, 2024-02-26 19:08:21.031
28.0, 187500.0, 187500.0, 187500.0, 187500.0, -11293.71062442191, 187500.0, 187500.0, -182664.13303186095, 0.052000000000000005, -0.008, 0.98, 192.0, 1.0, 160.0, 255.0, 192.0, 30.0, 160.0, 0.0, 0.0, 0.0, 1.708992501034656E9, 0.0, 2024-02-26 19:08:21.034
29.0, 187500.0, 187500.0, 187500.0, 187500.0, -11178.39797477698, 187500.0, 187500.0, -182821.31049887068, 0.052000000000000005, -0.008, 0.98, 192.0, 0.0, 0.0, 0.0, 0.0, 0.0, 0.0, 0.0, 0.0, 0.0, 1.708992501037618E9, 0.0, 2024-02-26 19:08:21.037
30.0, 187500.0, 187500.0, 187500.0, 187500.0, -11275.203380012916, 187500.0, 187500.0, -182760.31258825216, 0.052000000000000005, -0.008, 0.98, 192.0, 0.0, 0.0, 0.0, 0.0, 0.0, 0.0, 0.0, 0.0, 0.0, 1.708992501041662E9, 0.0, 2024-02-26 19:08:21.041
31.0, 187500.0, 187500.0, 187500.0, 187500.0, -11371.315881170736, 187500.0, 187500.0, -182620.07774353956, 0.052000000000000005, -0.008, 0.98, 192.0, 0.0, 0.0, 0.0, 0.0, 0.0, 0.0, 0.0, 0.0, 0.0, 1.708992501046673E9, 0.0, 2024-02-26 19:08:21.046
32.0, 187500.0, 187500.0, 187500.0, 187500.0, -11344.76200875783, 187500.0, 187500.0, -182545.22175135874, 0.052000000000000005, -0.008, 0.98, 192.0, 0.0, 0.0, 0.0, 0.0, 0.0, 0.0, 0.0, 0.0, 0.0, 1.708992501050678E9, 0.0, 2024-02-26 19:08:21.050
33.0, 187500.0, 187500.0, 187500.0, 187500.0, -11231.818644025165, 187500.0, 187500.0, -182678.77342447918, 0.052000000000000005, -0.008, 0.98, 192.0, 0.0, 0.0, 0.0, 0.0, 0.0, 0.0, 0.0, 0.0, 0.0, 1.708992501054669E9, 0.0, 2024-02-26 19:08:21.054
34.0, 187500.0, 187500.0, 187500.0, 187500.0, -11292.011891843307, 187500.0, 187500.0, -182717.50899762023, 0.052000000000000005, -0.008, 0.98, 192.0, 0.0, 0.0, 0.0, 0.0, 0.0, 0.0, 0.0, 0.0, 0.0, 1.708992501058672E9, 0.0, 2024-02-26 19:08:21.058
35.0, 187500.0, 187500.0, 187500.0, 187500.0, -11414.119471802649, 187500.0, 187500.0, -182608.23131897824, 0.052000000000000005, -0.008, 0.98, 192.0, 0.0, 0.0, 0.0, 0.0, 0.0, 0.0, 0.0, 0.0, 0.0, 1.708992501062668E9, 0.0, 2024-02-26 19:08:21.062
36.0, 187500.0, 187500.0, 187500.0, 187500.0, -11406.072843798738, 187500.0, 187500.0, -182614.84743533703, 0.052000000000000005, -0.008, 0.98, 192.0, 0.0, 0.0, 0.0, 0.0, 0.0, 0.0, 0.0, 0.0, 0.0, 1.708992501065714E9, 0.0, 2024-02-26 19:08:21.065
37.0, 187500.0, 187500.0, 187500.0, 187500.0, -11307.054615861729, 187500.0, 187500.0, -182736.21740772933, 0.052000000000000005, -0.008, 0.98, 192.0, 0.0, 0.0, 0.0, 0.0, 0.0, 0.0, 0.0, 0.0, 0.0, 1.708992501069667E9, 0.0, 2024-02-26 19:08:21.069
38.0, 187500.0, 187500.0, 187500.0, 187500.0, -11310.966171141406, 187500.0, 187500.0, -182806.55834753017, 0.062, -0.004, 0.98, 192.0, 1.0, 240.0, 255.0, 224.0, 30.0, 160.0, 0.0, 0.0, 0.0, 1.708992501073663E9, 0.0, 2024-02-26 19:08:21.073
39.0, 187500.0, 187500.0, 187500.0, 187500.0, -11450.5528152648, 187500.0, 187500.0, -182691.55862230764, 0.062, -0.004, 0.98, 192.0, 0.0, 0.0, 0.0, 0.0, 0.0, 0.0, 0.0, 0.0, 0.0, 1.708992501078669E9, 0.0, 2024-02-26 19:08:21.078
40.0, 187500.0, 187500.0, 187500.0, 187500.0, -11449.926966420051, 187500.0, 187500.0, -182616.45676093778, 0.062, -0.004, 0.98, 192.0, 0.0, 0.0, 0.0, 0.0, 0.0, 0.0, 0.0, 0.0, 0.0, 1.708992501082717E9, 0.0, 2024-02-26 19:08:21.082
41.0, 187500.0, 187500.0, 187500.0, 187500.0, -11370.86884628163, 187500.0, 187500.0, -182659.95325564782, 0.062, -0.004, 0.98, 192.0, 0.0, 0.0, 0.0, 0.0, 0.0, 0.0, 0.0, 0.0, 0.0, 1.708992501086675E9, 0.0, 2024-02-26 19:08:21.086
42.0, 187500.0, 187500.0, 187500.0, 187500.0, -11322.253802091338, 187500.0, 187500.0, -182736.39622168496, 0.062, -0.004, 0.98, 192.0, 0.0, 0.0, 0.0, 0.0, 0.0, 0.0, 0.0, 0.0, 0.0, 1.708992501089719E9, 0.0, 2024-02-26 19:08:21.089
43.0, 187500.0, 187500.0, 187500.0, 187500.0, -11476.234969643947, 187500.0, 187500.0, -182643.39061300643, 0.062, -0.004, 0.98, 192.0, 0.0, 0.0, 0.0, 0.0, 0.0, 0.0, 0.0, 0.0, 0.0, 1.708992501093707E9, 0.0, 2024-02-26 19:08:21.093
44.0, 187500.0, 187500.0, 187500.0, 187500.0, -11499.100804221727, 187500.0, 187500.0, -182589.92524026934, 0.062, -0.004, 0.98, 192.0, 0.0, 0.0, 0.0, 0.0, 0.0, 0.0, 0.0, 0.0, 0.0, 1.708992501097716E9, 0.0, 2024-02-26 19:08:21.097
45.0, 187500.0, 187500.0, 187500.0, 187500.0, -11440.963916893474, 187500.0, 187500.0, -182651.1690200769, 0.062, -0.004, 0.98, 192.0, 0.0, 0.0, 0.0, 0.0, 0.0, 0.0, 0.0, 0.0, 0.0, 1.708992501102729E9, 0.0, 2024-02-26 19:08:21.102
46.0, 187500.0, 187500.0, 187500.0, 187500.0, -11367.67254682452, 187500.0, 187500.0, -182760.89373360798, 0.062, -0.004, 0.98, 192.0, 0.0, 0.0, 0.0, 0.0, 0.0, 0.0, 0.0, 0.0, 0.0, 1.708992501106724E9, 0.0, 2024-02-26 19:08:21.106
47.0, 187500.0, 187500.0, 187500.0, 187500.0, -11491.456507618012, 187500.0, 187500.0, -182644.03881359563, 0.062, -0.004, 0.98, 192.0, 0.0, 0.0, 0.0, 0.0, 0.0, 0.0, 0.0, 0.0, 0.0, 1.708992501110714E9, 0.0, 2024-02-26 19:08:21.110
48.0, 187500.0, 187500.0, 187500.0, 187500.0, -11516.289295707858, 187500.0, 187500.0, -182617.21672024927, 0.062, -0.006, 0.98, 192.0, 1.0, 240.0, 255.0, 208.0, 30.0, 160.0, 0.0, 0.0, 0.0, 1.708992501114711E9, 0.0, 2024-02-26 19:08:21.114
49.0, 187500.0, 187500.0, 187500.0, 187500.0, -11465.349670094212, 187500.0, 187500.0, -182690.23986938476, 0.062, -0.006, 0.98, 192.0, 0.0, 0.0, 0.0, 0.0, 0.0, 0.0, 0.0, 0.0, 0.0, 1.708992501120672E9, 0.0, 2024-02-26 19:08:21.120
50.0, 187500.0, 187500.0, 187500.0, 187500.0, -11373.260482938347, 187500.0, 187500.0, -182771.46610873536, 0.062, -0.006, 0.98, 192.0, 0.0, 0.0, 0.0, 0.0, 0.0, 0.0, 0.0, 0.0, 0.0, 1.708992501121695E9, 0.0, 2024-02-26 19:08:21.121
51.0, 187500.0, 187500.0, 187500.0, 187500.0, -11481.219408657482, 187500.0, 187500.0, -182664.62477023897, 0.062, -0.006, 0.98, 192.0, 0.0, 0.0, 0.0, 0.0, 0.0, 0.0, 0.0, 0.0, 0.0, 1.708992501125754E9, 0.0, 2024-02-26 19:08:21.125
52.0, 187500.0, 187500.0, 187500.0, 187500.0, -11516.557516641322, 187500.0, 187500.0, -182567.9981789587, 0.062, -0.006, 0.98, 192.0, 0.0, 0.0, 0.0, 0.0, 0.0, 0.0, 0.0, 0.0, 0.0, 1.708992501130727E9, 0.0, 2024-02-26 19:08:21.130
53.0, 187500.0, 187500.0, 187500.0, 187500.0, -11484.013376714394, 187500.0, 187500.0, -182610.26532772367, 0.062, -0.006, 0.98, 192.0, 0.0, 0.0, 0.0, 0.0, 0.0, 0.0, 0.0, 0.0, 0.0, 1.708992501134734E9, 0.0, 2024-02-26 19:08:21.134
54.0, 187500.0, 187500.0, 187500.0, 187500.0, -11367.225511935416, 187500.0, 187500.0, -182759.17264928494, 0.062, -0.006, 0.98, 192.0, 0.0, 0.0, 0.0, 0.0, 0.0, 0.0, 0.0, 0.0, 0.0, 1.708992501138718E9, 0.0, 2024-02-26 19:08:21.138
55.0, 187500.0, 187500.0, 187500.0, 187500.0, -11448.317640819268, 187500.0, 187500.0, -182719.61006159903, 0.062, -0.006, 0.98, 192.0, 0.0, 0.0, 0.0, 0.0, 0.0, 0.0, 0.0, 0.0, 0.0, 1.708992501141773E9, 0.0, 2024-02-26 19:08:21.141
56.0, 187500.0, 187500.0, 187500.0, 187500.0, -11534.081284294281, 187500.0, 187500.0, -182599.42473166285, 0.062, -0.006, 0.98, 192.0, 0.0, 0.0, 0.0, 0.0, 0.0, 0.0, 0.0, 0.0, 0.0, 1.708992501145761E9, 0.0, 2024-02-26 19:08:21.145
57.0, 187500.0, 187500.0, 187500.0, 187500.0, -11512.109519494716, 187500.0, 187500.0, -182604.00683927618, 0.062, -0.006, 0.98, 192.0, 0.0, 0.0, 0.0, 0.0, 0.0, 0.0, 0.0, 0.0, 0.0, 1.708992501149763E9, 0.0, 2024-02-26 19:08:21.149
58.0, 187500.0, 187500.0, 187500.0, 187500.0, -11395.835744838208, 187500.0, 187500.0, -182745.04634678917, 0.07, -0.002, 0.98, 192.0, 2.0, 48.0, 255.0, 240.0, 30.0, 160.0, 0.0, 0.0, 0.0, 1.708992501153753E9, 0.0, 2024-02-26 19:08:21.153
59.0, 187500.0, 187500.0, 187500.0, 187500.0, -11434.146634834604, 187500.0, 187500.0, -182791.51562351175, 0.07, -0.002, 0.98, 192.0, 0.0, 0.0, 0.0, 0.0, 0.0, 0.0, 0.0, 0.0, 0.0, 1.70899250115877E9, 0.0, 2024-02-26 19:08:21.158
60.0, 187500.0, 187500.0, 187500.0, 187500.0, -11540.4738832085, 187500.0, 187500.0, -182623.6093191635, 0.07, -0.002, 0.98, 192.0, 0.0, 0.0, 0.0, 0.0, 0.0, 0.0, 0.0, 0.0, 0.0, 1.708992501162771E9, 0.0, 2024-02-26 19:08:21.162
61.0, 187500.0, 187500.0, 187500.0, 187500.0, -11517.764510841907, 187500.0, 187500.0, -182568.5346208256, 0.07, -0.002, 0.98, 192.0, 0.0, 0.0, 0.0, 0.0, 0.0, 0.0, 0.0, 0.0, 0.0, 1.708992501166783E9, 0.0, 2024-02-26 19:08:21.166
62.0, 187500.0, 187500.0, 187500.0, 187500.0, -11414.410044480568, 187500.0, 187500.0, -182659.39446203643, 0.07, -0.002, 0.98, 192.0, 0.0, 0.0, 0.0, 0.0, 0.0, 0.0, 0.0, 0.0, 0.0, 1.708992501169774E9, 0.0, 2024-02-26 19:08:21.169
63.0, 187500.0, 187500.0, 187500.0, 187500.0, -11396.841573338697, 187500.0, 187500.0, -182741.73828860978, 0.07, -0.002, 0.98, 192.0, 0.0, 0.0, 0.0, 0.0, 0.0, 0.0, 0.0, 0.0, 0.0, 1.708992501173758E9, 0.0, 2024-02-26 19:08:21.173
64.0, 187500.0, 187500.0, 187500.0, 187500.0, -11528.783920858374, 187500.0, 187500.0, -182611.60643239098, 0.07, -0.002, 0.98, 192.0, 0.0, 0.0, 0.0, 0.0, 0.0, 0.0, 0.0, 0.0, 0.0, 1.70899250117776E9, 0.0, 2024-02-26 19:08:21.177
65.0, 187500.0, 187500.0, 187500.0, 187500.0, -11532.382551715678, 187500.0, 187500.0, -182589.88053678043, 0.07, -0.002, 0.98, 192.0, 0.0, 0.0, 0.0, 0.0, 0.0, 0.0, 0.0, 0.0, 0.0, 1.708992501181764E9, 0.0, 2024-02-26 19:08:21.181
66.0, 187500.0, 187500.0, 187500.0, 187500.0, -11441.723876204953, 187500.0, 187500.0, -182652.13014508848, 0.07, -0.002, 0.98, 192.0, 0.0, 0.0, 0.0, 0.0, 0.0, 0.0, 0.0, 0.0, 0.0, 1.708992501186758E9, 0.0, 2024-02-26 19:08:21.186
67.0, 187500.0, 187500.0, 187500.0, 187500.0, -11358.687145553487, 187500.0, 187500.0, -182805.88779519653, 0.07, -0.002, 0.98, 192.0, 0.0, 0.0, 0.0, 0.0, 0.0, 0.0, 0.0, 0.0, 0.0, 1.708992501190763E9, 0.0, 2024-02-26 19:08:21.190
68.0, 187500.0, 187500.0, 187500.0, 187500.0, -11501.984179256462, 187500.0, 187500.0, -182706.3778288815, 0.068, -0.004, 0.98, 192.0, 2.0, 32.0, 255.0, 224.0, 30.0, 160.0, 0.0, 0.0, 0.0, 1.708992501194815E9, 0.0, 2024-02-26 19:08:21.194
69.0, 187500.0, 187500.0, 187500.0, 187500.0, -11508.220315959492, 187500.0, 187500.0, -182642.6083019505, 0.068, -0.004, 0.98, 192.0, 0.0, 0.0, 0.0, 0.0, 0.0, 0.0, 0.0, 0.0, 0.0, 1.708992501197815E9, 0.0, 2024-02-26 19:08:21.197
70.0, 187500.0, 187500.0, 187500.0, 187500.0, -11433.274916800847, 187500.0, 187500.0, -182687.20003213885, 0.068, -0.004, 0.98, 192.0, 0.0, 0.0, 0.0, 0.0, 0.0, 0.0, 0.0, 0.0, 0.0, 1.708992501201806E9, 0.0, 2024-02-26 19:08:21.201
71.0, 187500.0, 187500.0, 187500.0, 187500.0, -11323.974886414397, 187500.0, 187500.0, -182787.2017368319, 0.068, -0.004, 0.98, 192.0, 0.0, 0.0, 0.0, 0.0, 0.0, 0.0, 0.0, 0.0, 0.0, 1.708992501205815E9, 0.0, 2024-02-26 19:08:21.205
72.0, 187500.0, 187500.0, 187500.0, 187500.0, -11441.902690160596, 187500.0, 187500.0, -182658.7686131917, 0.068, -0.004, 0.98, 192.0, 0.0, 0.0, 0.0, 0.0, 0.0, 0.0, 0.0, 0.0, 0.0, 1.708992501209833E9, 0.0, 2024-02-26 19:08:21.209
73.0, 187500.0, 187500.0, 187500.0, 187500.0, -11458.5547397798, 187500.0, 187500.0, -182585.27607742263, 0.068, -0.004, 0.98, 192.0, 0.0, 0.0, 0.0, 0.0, 0.0, 0.0, 0.0, 0.0, 0.0, 1.708992501213834E9, 0.0, 2024-02-26 19:08:21.213
74.0, 187500.0, 187500.0, 187500.0, 187500.0, -11394.092308770694, 187500.0, 187500.0, -182569.40633885938, 0.068, -0.004, 0.98, 192.0, 0.0, 0.0, 0.0, 0.0, 0.0, 0.0, 0.0, 0.0, 0.0, 1.708992501218807E9, 0.0, 2024-02-26 19:08:21.218
75.0, 187500.0, 187500.0, 187500.0, 187500.0, -11265.502722919313, 187500.0, 187500.0, -182707.16013993742, 0.068, -0.004, 0.98, 192.0, 0.0, 0.0, 0.0, 0.0, 0.0, 0.0, 0.0, 0.0, 0.0, 1.708992501222808E9, 0.0, 2024-02-26 19:08:21.222
76.0, 187500.0, 187500.0, 187500.0, 187500.0, -11366.44320087948, 187500.0, 187500.0, -182684.29430535965, 0.068, -0.004, 0.98, 192.0, 0.0, 0.0, 0.0, 0.0, 0.0, 0.0, 0.0, 0.0, 0.0, 1.708992501225825E9, 0.0, 2024-02-26 19:08:21.225
77.0, 187500.0, 187500.0, 187500.0, 187500.0, -11430.995038866406, 187500.0, 187500.0, -182579.86695526444, 0.068, -0.004, 0.98, 192.0, 0.0, 0.0, 0.0, 0.0, 0.0, 0.0, 0.0, 0.0, 0.0, 1.708992501229818E9, 0.0, 2024-02-26 19:08:21.229
78.0, 187500.0, 187500.0, 187500.0, 187500.0, -11395.276951226826, 187500.0, 187500.0, -182627.18559827635, 0.062, -0.002, 0.978, 192.0, 1.0, 240.0, 255.0, 240.0, 30.0, 144.0, 0.0, 0.0, 0.0, 1.70899250123381E9, 0.0, 2024-02-26 19:08:21.233
79.0, 187500.0, 187500.0, 187500.0, 187500.0, -11281.28305450476, 187500.0, 187500.0, -182778.2386873053, 0.062, -0.002, 0.978, 192.0, 0.0, 0.0, 0.0, 0.0, 0.0, 0.0, 0.0, 0.0, 0.0, 1.708992501237843E9, 0.0, 2024-02-26 19:08:21.237
80.0, 187500.0, 187500.0, 187500.0, 187500.0, -11339.19642438846, 187500.0, 187500.0, -182761.5419341972, 0.062, -0.002, 0.978, 192.0, 0.0, 0.0, 0.0, 0.0, 0.0, 0.0, 0.0, 0.0, 0.0, 1.708992501241845E9, 0.0, 2024-02-26 19:08:21.241
81.0, 187500.0, 187500.0, 187500.0, 187500.0, -11419.059207327273, 187500.0, 187500.0, -182616.9484993158, 0.062, -0.002, 0.978, 192.0, 0.0, 0.0, 0.0, 0.0, 0.0, 0.0, 0.0, 0.0, 0.0, 1.708992501246853E9, 0.0, 2024-02-26 19:08:21.246
82.0, 187500.0, 187500.0, 187500.0, 187500.0, -11385.598645877677, 187500.0, 187500.0, -182572.42382436083, 0.062, -0.002, 0.978, 192.0, 0.0, 0.0, 0.0, 0.0, 0.0, 0.0, 0.0, 0.0, 0.0, 1.708992501249848E9, 0.0, 2024-02-26 19:08:21.249
83.0, 187500.0, 187500.0, 187500.0, 187500.0, -11266.195626997427, 187500.0, 187500.0, -182685.72481700478, 0.062, -0.002, 0.978, 192.0, 0.0, 0.0, 0.0, 0.0, 0.0, 0.0, 0.0, 0.0, 0.0, 1.708992501253852E9, 0.0, 2024-02-26 19:08:21.253
84.0, 187500.0, 187500.0, 187500.0, 187500.0, -11277.125630036073, 187500.0, 187500.0, -182674.50424128823, 0.062, -0.002, 0.978, 192.0, 0.0, 0.0, 0.0, 0.0, 0.0, 0.0, 0.0, 0.0, 0.0, 1.70899250125784E9, 0.0, 2024-02-26 19:08:21.257
85.0, 187500.0, 187500.0, 187500.0, 187500.0, -11371.472343381924, 187500.0, 187500.0, -182533.97882389772, 0.062, -0.002, 0.978, 192.0, 0.0, 0.0, 0.0, 0.0, 0.0, 0.0, 0.0, 0.0, 0.0, 1.708992501261842E9, 0.0, 2024-02-26 19:08:21.261
86.0, 187500.0, 187500.0, 187500.0, 187500.0, -11346.684258780988, 187500.0, 187500.0, -182566.8805917359, 0.062, -0.002, 0.978, 192.0, 0.0, 0.0, 0.0, 0.0, 0.0, 0.0, 0.0, 0.0, 0.0, 1.708992501265841E9, 0.0, 2024-02-26 19:08:21.265
87.0, 187500.0, 187500.0, 187500.0, 187500.0, -11235.730199304844, 187500.0, 187500.0, -182652.89010439994, 0.062, -0.002, 0.978, 192.0, 0.0, 0.0, 0.0, 0.0, 0.0, 0.0, 0.0, 0.0, 0.0, 1.708992501269855E9, 0.0, 2024-02-26 19:08:21.269
88.0, 187500.0, 187500.0, 187500.0, 187500.0, -11193.17247786194, 187500.0, 187500.0, -182782.26200130727, 0.066, 0.002, 0.98, 192.0, 2.0, 16.0, 0.0, 16.0, 30.0, 160.0, 0.0, 0.0, 0.0, 1.708992501274847E9, 0.0, 2024-02-26 19:08:21.274
89.0, 187500.0, 187500.0, 187500.0, 187500.0, -11323.214927102916, 187500.0, 187500.0, -182687.53530830567, 0.066, 0.002, 0.98, 192.0, 0.0, 0.0, 0.0, 0.0, 0.0, 0.0, 0.0, 0.0, 0.0, 1.708992501277846E9, 0.0, 2024-02-26 19:08:21.277
90.0, 187500.0, 187500.0, 187500.0, 187500.0, -11305.065310605207, 187500.0, 187500.0, -182594.61910660495, 0.066, 0.002, 0.98, 192.0, 0.0, 0.0, 0.0, 0.0, 0.0, 0.0, 0.0, 0.0, 0.0, 1.708992501281864E9, 0.0, 2024-02-26 19:08:21.281
91.0, 187500.0, 187500.0, 187500.0, 187500.0, -11216.820623495654, 187500.0, 187500.0, -182612.45579868028, 0.066, 0.002, 0.98, 192.0, 0.0, 0.0, 0.0, 0.0, 0.0, 0.0, 0.0, 0.0, 0.0, 1.708992501285886E9, 0.0, 2024-02-26 19:08:21.285
92.0, 187500.0, 187500.0, 187500.0, 187500.0, -11141.607003403546, 187500.0, 187500.0, -182674.34777907704, 0.066, 0.002, 0.98, 192.0, 0.0, 0.0, 0.0, 0.0, 0.0, 0.0, 0.0, 0.0, 0.0, 1.708992501289883E9, 0.0, 2024-02-26 19:08:21.289
93.0, 187500.0, 187500.0, 187500.0, 187500.0, -11238.255946428293, 187500.0, 187500.0, -182568.7357865257, 0.066, 0.002, 0.98, 192.0, 0.0, 0.0, 0.0, 0.0, 0.0, 0.0, 0.0, 0.0, 0.0, 1.708992501293897E9, 0.0, 2024-02-26 19:08:21.293
94.0, 187500.0, 187500.0, 187500.0, 187500.0, -11243.46390288638, 187500.0, 187500.0, -182578.7493680417, 0.066, 0.002, 0.98, 192.0, 0.0, 0.0, 0.0, 0.0, 0.0, 0.0, 0.0, 0.0, 0.0, 1.70899250129789E9, 0.0, 2024-02-26 19:08:21.297
95.0, 187500.0, 187500.0, 187500.0, 187500.0, -11174.642881708489, 187500.0, 187500.0, -182605.28088871014, 0.066, 0.002, 0.98, 192.0, 0.0, 0.0, 0.0, 0.0, 0.0, 0.0, 0.0, 0.0, 0.0, 1.708992501302906E9, 0.0, 2024-02-26 19:08:21.302
96.0, 187500.0, 187500.0, 187500.0, 187500.0, -11075.401136326926, 187500.0, 187500.0, -182735.4350966734, 0.066, 0.002, 0.98, 192.0, 0.0, 0.0, 0.0, 0.0, 0.0, 0.0, 0.0, 0.0, 0.0, 1.708992501305896E9, 0.0, 2024-02-26 19:08:21.305
97.0, 187500.0, 187500.0, 187500.0, 187500.0, -11211.433853081924, 187500.0, 187500.0, -182650.34200553203, 0.066, 0.002, 0.98, 192.0, 0.0, 0.0, 0.0, 0.0, 0.0, 0.0, 0.0, 0.0, 0.0, 1.708992501309893E9, 0.0, 2024-02-26 19:08:21.309
98.0, 187500.0, 187500.0, 187500.0, 187500.0, -11257.545501893223, 187500.0, 187500.0, -182602.95630728677, 0.06, -0.002, 0.978, 192.0, 1.0, 224.0, 255.0, 240.0, 30.0, 144.0, 0.0, 0.0, 0.0, 1.708992501313884E9, 0.0, 2024-02-26 19:08:21.313
99.0, 187500.0, 187500.0, 187500.0, 187500.0, -11227.057722456184, 187500.0, 187500.0, -182645.4693252408, 0.06, -0.002, 0.978, 192.0, 0.0, 0.0, 0.0, 0.0, 0.0, 0.0, 0.0, 0.0, 0.0, 1.708992501317882E9, 0.0, 2024-02-26 19:08:21.317
100.0, 187500.0, 187500.0, 187500.0, 187500.0, -11103.854907018533, 187500.0, 187500.0, -182752.42242245944, 0.06, -0.002, 0.978, 192.0, 0.0, 0.0, 0.0, 0.0, 0.0, 0.0, 0.0, 0.0, 0.0, 1.708992501321956E9, 0.0, 2024-02-26 19:08:21.321
101.0, 187500.0, 187500.0, 187500.0, 187500.0, -11185.751698702778, 187500.0, 187500.0, -182663.2166103383, 0.06, -0.002, 0.978, 192.0, 0.0, 0.0, 0.0, 0.0, 0.0, 0.0, 0.0, 0.0, 0.0, 1.708992501325992E9, 0.0, 2024-02-26 19:08:21.325
102.0, 187500.0, 187500.0, 187500.0, 187500.0, -11255.265623958781, 187500.0, 187500.0, -182574.86016450648, 0.06, -0.002, 0.978, 192.0, 0.0, 0.0, 0.0, 0.0, 0.0, 0.0, 0.0, 0.0, 0.0, 1.708992501330928E9, 0.0, 2024-02-26 19:08:21.330
103.0, 187500.0, 187500.0, 187500.0, 187500.0, -11229.382303879536, 187500.0, 187500.0, -182566.32179812455, 0.06, -0.002, 0.978, 192.0, 0.0, 0.0, 0.0, 0.0, 0.0, 0.0, 0.0, 0.0, 0.0, 1.708992501333937E9, 0.0, 2024-02-26 19:08:21.333
104.0, 187500.0, 187500.0, 187500.0, 187500.0, -11109.353436154537, 187500.0, 187500.0, -182675.10773838853, 0.06, -0.002, 0.978, 192.0, 0.0, 0.0, 0.0, 0.0, 0.0, 0.0, 0.0, 0.0, 0.0, 1.708992501337925E9, 0.0, 2024-02-26 19:08:21.337
105.0, 187500.0, 187500.0, 187500.0, 187500.0, -11150.435942463391, 187500.0, 187500.0, -182667.88812492945, 0.06, -0.002, 0.978, 192.0, 0.0, 0.0, 0.0, 0.0, 0.0, 0.0, 0.0, 0.0, 0.0, 1.708992501341958E9, 0.0, 2024-02-26 19:08:21.341
106.0, 187500.0, 187500.0, 187500.0, 187500.0, -11233.584431837135, 187500.0, 187500.0, -182542.04780364607, 0.06, -0.002, 0.978, 192.0, 0.0, 0.0, 0.0, 0.0, 0.0, 0.0, 0.0, 0.0, 0.0, 1.708992501345989E9, 0.0, 2024-02-26 19:08:21.345
107.0, 187500.0, 187500.0, 187500.0, 187500.0, -11193.440698795403, 187500.0, 187500.0, -182516.9914981117, 0.056, 0.0, 0.98, 192.0, 1.0, 192.0, 0.0, 0.0, 30.0, 160.0, 0.0, 0.0, 0.0, 1.708992501349934E9, 0.0, 2024-02-26 19:08:21.349
108.0, 187500.0, 187500.0, 187500.0, 187500.0, -11085.39236609845, 187500.0, 187500.0, -182706.55664283712, 0.056, 0.0, 0.98, 192.0, 0.0, 0.0, 0.0, 0.0, 0.0, 0.0, 0.0, 0.0, 0.0, 1.708992501354019E9, 0.0, 2024-02-26 19:08:21.354
109.0, 187500.0, 187500.0, 187500.0, 187500.0, -11088.923941722387, 187500.0, 187500.0, -182777.0987483381, 0.056, 0.0, 0.98, 192.0, 0.0, 0.0, 0.0, 0.0, 0.0, 0.0, 0.0, 0.0, 0.0, 1.708992501358027E9, 0.0, 2024-02-26 19:08:21.358
110.0, 187500.0, 187500.0, 187500.0, 187500.0, -11200.325036087637, 187500.0, 187500.0, -182636.2157030363, 0.056, 0.0, 0.98, 192.0, 0.0, 0.0, 0.0, 0.0, 0.0, 0.0, 0.0, 0.0, 0.0, 1.708992501362048E9, 0.0, 2024-02-26 19:08:21.362
111.0, 187500.0, 187500.0, 187500.0, 187500.0, -11192.233704594815, 187500.0, 187500.0, -182553.04486191808, 0.056, 0.0, 0.98, 192.0, 0.0, 0.0, 0.0, 0.0, 0.0, 0.0, 0.0, 0.0, 0.0, 1.708992501365046E9, 0.0, 2024-02-26 19:08:21.365
112.0, 187500.0, 187500.0, 187500.0, 187500.0, -11115.34370366856, 187500.0, 187500.0, -182617.350830716, 0.056, 0.0, 0.98, 192.0, 0.0, 0.0, 0.0, 0.0, 0.0, 0.0, 0.0, 0.0, 0.0, 1.708992501370061E9, 0.0, 2024-02-26 19:08:21.370
113.0, 187500.0, 187500.0, 187500.0, 187500.0, -11018.337132732528, 187500.0, 187500.0, -182738.02789903022, 0.056, 0.0, 0.98, 192.0, 0.0, 0.0, 0.0, 0.0, 0.0, 0.0, 0.0, 0.0, 0.0, 1.708992501374042E9, 0.0, 2024-02-26 19:08:21.374
114.0, 187500.0, 187500.0, 187500.0, 187500.0, -11137.561337657135, 187500.0, 187500.0, -182570.36746387096, 0.056, 0.0, 0.98, 192.0, 0.0, 0.0, 0.0, 0.0, 0.0, 0.0, 0.0, 0.0, 0.0, 1.708992501378036E9, 0.0, 2024-02-26 19:08:21.378
115.0, 187500.0, 187500.0, 187500.0, 187500.0, -11153.900462853964, 187500.0, 187500.0, -182503.3792857384, 0.056, 0.0, 0.98, 192.0, 0.0, 0.0, 0.0, 0.0, 0.0, 0.0, 0.0, 0.0, 0.0, 1.708992501382052E9, 0.0, 2024-02-26 19:08:21.382
116.0, 187500.0, 187500.0, 187500.0, 187500.0, -11091.025005701185, 187500.0, 187500.0, -182638.54028445962, 0.056, 0.0, 0.98, 192.0, 0.0, 0.0, 0.0, 0.0, 0.0, 0.0, 0.0, 0.0, 0.0, 1.708992501386037E9, 0.0, 2024-02-26 19:08:21.386
117.0, 187500.0, 187500.0, 187500.0, 187500.0, -10993.750213831689, 187500.0, 187500.0, -182766.01228308826, 0.062, -0.006, 0.986, 192.0, 1.0, 240.0, 255.0, 208.0, 30.0, 208.0, 0.0, 0.0, 0.0, 1.708992501390036E9, 0.0, 2024-02-26 19:08:21.390
118.0, 187500.0, 187500.0, 187500.0, 187500.0, -11127.39129392997, 187500.0, 187500.0, -182665.87646792846, 0.062, -0.006, 0.986, 192.0, 0.0, 0.0, 0.0, 0.0, 0.0, 0.0, 0.0, 0.0, 0.0, 1.708992501393053E9, 0.0, 2024-02-26 19:08:21.393
119.0, 187500.0, 187500.0, 187500.0, 187500.0, -11150.078314552107, 187500.0, 187500.0, -182628.32553724357, 0.062, -0.006, 0.986, 192.0, 0.0, 0.0, 0.0, 0.0, 0.0, 0.0, 0.0, 0.0, 0.0, 1.708992501398051E9, 0.0, 2024-02-26 19:08:21.398
120.0, 187500.0, 187500.0, 187500.0, 187500.0, -11084.319482364594, 187500.0, 187500.0, -182627.85615061, 0.062, -0.006, 0.986, 192.0, 0.0, 0.0, 0.0, 0.0, 0.0, 0.0, 0.0, 0.0, 0.0, 1.708992501402049E9, 0.0, 2024-02-26 19:08:21.402
121.0, 187500.0, 187500.0, 187500.0, 187500.0, -10963.8882832394, 187500.0, 187500.0, -182720.45942788833, 0.062, -0.006, 0.986, 192.0, 0.0, 0.0, 0.0, 0.0, 0.0, 0.0, 0.0, 0.0, 0.0, 1.708992501406034E9, 0.0, 2024-02-26 19:08:21.406
122.0, 187500.0, 187500.0, 187500.0, 187500.0, -11085.660587031913, 187500.0, 187500.0, -182633.22056927928, 0.062, -0.006, 0.986, 192.0, 0.0, 0.0, 0.0, 0.0, 0.0, 0.0, 0.0, 0.0, 0.0, 1.708992501410037E9, 0.0, 2024-02-26 19:08:21.410
123.0, 187500.0, 187500.0, 187500.0, 187500.0, -11139.058904535641, 187500.0, 187500.0, -182547.45692580426, 0.062, -0.006, 0.986, 192.0, 0.0, 0.0, 0.0, 0.0, 0.0, 0.0, 0.0, 0.0, 0.0, 1.708992501414052E9, 0.0, 2024-02-26 19:08:21.414
124.0, 187500.0, 187500.0, 187500.0, 187500.0, -11091.695558034846, 187500.0, 187500.0, -182537.44334428827, 0.062, -0.006, 0.986, 192.0, 0.0, 0.0, 0.0, 0.0, 0.0, 0.0, 0.0, 0.0, 0.0, 1.708992501417049E9, 0.0, 2024-02-26 19:08:21.417
125.0, 187500.0, 187500.0, 187500.0, 187500.0, -10969.610329819958, 187500.0, 187500.0, -182684.00373268174, 0.062, -0.006, 0.986, 192.0, 0.0, 0.0, 0.0, 0.0, 0.0, 0.0, 0.0, 0.0, 0.0, 1.708992501421039E9, 0.0, 2024-02-26 19:08:21.421
126.0, 187500.0, 187500.0, 187500.0, 187500.0, -11053.85405467201, 187500.0, 187500.0, -182649.64910145392, 0.062, -0.006, 0.986, 192.0, 0.0, 0.0, 0.0, 0.0, 0.0, 0.0, 0.0, 0.0, 0.0, 1.708992501426037E9, 0.0, 2024-02-26 19:08:21.426
127.0, 187500.0, 187500.0, 187500.0, 187500.0, -11128.35241894155, 187500.0, 187500.0, -182564.10897542347, 0.062, -0.004, 0.984, 192.0, 1.0, 240.0, 255.0, 224.0, 30.0, 192.0, 0.0, 0.0, 0.0, 1.708992501430047E9, 0.0, 2024-02-26 19:08:21.430
128.0, 187500.0, 187500.0, 187500.0, 187500.0, -11090.645026045446, 187500.0, 187500.0, -182591.6016211035, 0.062, -0.004, 0.984, 192.0, 0.0, 0.0, 0.0, 0.0, 0.0, 0.0, 0.0, 0.0, 0.0, 1.708992501434055E9, 0.0, 2024-02-26 19:08:21.434
129.0, 187500.0, 187500.0, 187500.0, 187500.0, -10968.425687363826, 187500.0, 187500.0, -182732.64112861647, 0.062, -0.004, 0.984, 192.0, 0.0, 0.0, 0.0, 0.0, 0.0, 0.0, 0.0, 0.0, 0.0, 1.708992501438046E9, 0.0, 2024-02-26 19:08:21.438
130.0, 187500.0, 187500.0, 187500.0, 187500.0, -10999.874591812444, 187500.0, 187500.0, -182707.1824916819, 0.062, -0.004, 0.984, 192.0, 0.0, 0.0, 0.0, 0.0, 0.0, 0.0, 0.0, 0.0, 0.0, 1.70899250144107E9, 0.0, 2024-02-26 19:08:21.441
131.0, 187500.0, 187500.0, 187500.0, 187500.0, -11090.577970812079, 187500.0, 187500.0, -182604.54328114312, 0.062, -0.004, 0.984, 192.0, 0.0, 0.0, 0.0, 0.0, 0.0, 0.0, 0.0, 0.0, 0.0, 1.708992501445077E9, 0.0, 2024-02-26 19:08:21.445
132.0, 187500.0, 187500.0, 187500.0, 187500.0, -11070.796676969132, 187500.0, 187500.0, -182626.2468250092, 0.062, -0.004, 0.984, 192.0, 0.0, 0.0, 0.0, 0.0, 0.0, 0.0, 0.0, 0.0, 0.0, 1.708992501449068E9, 0.0, 2024-02-26 19:08:21.449
133.0, 187500.0, 187500.0, 187500.0, 187500.0, -10963.105972183463, 187500.0, 187500.0, -182718.91715752092, 0.062, -0.004, 0.984, 192.0, 0.0, 0.0, 0.0, 0.0, 0.0, 0.0, 0.0, 0.0, 0.0, 1.70899250145406E9, 0.0, 2024-02-26 19:08:21.454
134.0, 187500.0, 187500.0, 187500.0, 187500.0, -10950.298422610573, 187500.0, 187500.0, -182747.37092821253, 0.062, -0.004, 0.984, 192.0, 0.0, 0.0, 0.0, 0.0, 0.0, 0.0, 0.0, 0.0, 0.0, 1.708992501458062E9, 0.0, 2024-02-26 19:08:21.458
135.0, 187500.0, 187500.0, 187500.0, 187500.0, -11085.548828309635, 187500.0, 187500.0, -182616.85909233798, 0.062, -0.004, 0.984, 192.0, 0.0, 0.0, 0.0, 0.0, 0.0, 0.0, 0.0, 0.0, 0.0, 1.708992501462077E9, 0.0, 2024-02-26 19:08:21.462
136.0, 187500.0, 187500.0, 187500.0, 187500.0, -11088.43220334437, 187500.0, 187500.0, -182602.86690030896, 0.062, -0.004, 0.984, 192.0, 0.0, 0.0, 0.0, 0.0, 0.0, 0.0, 0.0, 0.0, 0.0, 1.708992501466081E9, 0.0, 2024-02-26 19:08:21.466
137.0, 187500.0, 187500.0, 187500.0, 187500.0, -11017.018379809664, 187500.0, 187500.0, -182687.04356992766, 0.064, 0.0, 0.984, 192.0, 2.0, 0.0, 0.0, 0.0, 30.0, 192.0, 0.0, 0.0, 0.0, 1.708992501469103E9, 0.0, 2024-02-26 19:08:21.469
138.0, 187500.0, 187500.0, 187500.0, 187500.0, -10982.12730671493, 187500.0, 187500.0, -182805.28429809623, 0.064, 0.0, 0.984, 192.0, 0.0, 0.0, 0.0, 0.0, 0.0, 0.0, 0.0, 0.0, 0.0, 1.708992501473097E9, 0.0, 2024-02-26 19:08:21.473
139.0, 187500.0, 187500.0, 187500.0, 187500.0, -11127.190128229873, 187500.0, 187500.0, -182675.13009013297, 0.064, 0.0, 0.984, 192.0, 0.0, 0.0, 0.0, 0.0, 0.0, 0.0, 0.0, 0.0, 0.0, 1.708992501477118E9, 0.0, 2024-02-26 19:08:21.477
140.0, 187500.0, 187500.0, 187500.0, 187500.0, -11119.7246455818, 187500.0, 187500.0, -182577.60942907448, 0.064, 0.0, 0.984, 192.0, 0.0, 0.0, 0.0, 0.0, 0.0, 0.0, 0.0, 0.0, 0.0, 1.708992501481174E9, 0.0, 2024-02-26 19:08:21.481
141.0, 187500.0, 187500.0, 187500.0, 187500.0, -11043.929880133854, 187500.0, 187500.0, -182626.06801105358, 0.064, 0.0, 0.984, 192.0, 0.0, 0.0, 0.0, 0.0, 0.0, 0.0, 0.0, 0.0, 0.0, 1.70899250148611E9, 0.0, 2024-02-26 19:08:21.486
142.0, 187500.0, 187500.0, 187500.0, 187500.0, -10955.21580639074, 187500.0, 187500.0, -182794.82368169114, 0.064, 0.0, 0.984, 192.0, 0.0, 0.0, 0.0, 0.0, 0.0, 0.0, 0.0, 0.0, 0.0, 1.708992501490102E9, 0.0, 2024-02-26 19:08:21.490
143.0, 187500.0, 187500.0, 187500.0, 187500.0, -11078.99976718423, 187500.0, 187500.0, -182689.5246135622, 0.064, 0.0, 0.984, 192.0, 0.0, 0.0, 0.0, 0.0, 0.0, 0.0, 0.0, 0.0, 0.0, 1.708992501494123E9, 0.0, 2024-02-26 19:08:21.494
144.0, 187500.0, 187500.0, 187500.0, 187500.0, -11106.648875075445, 187500.0, 187500.0, -182604.54328114312, 0.064, 0.0, 0.984, 192.0, 0.0, 0.0, 0.0, 0.0, 0.0, 0.0, 0.0, 0.0, 0.0, 1.708992501498132E9, 0.0, 2024-02-26 19:08:21.498
145.0, 187500.0, 187500.0, 187500.0, 187500.0, -11048.780208680655, 187500.0, 187500.0, -182620.23420575075, 0.064, 0.0, 0.984, 192.0, 0.0, 0.0, 0.0, 0.0, 0.0, 0.0, 0.0, 0.0, 0.0, 1.708992501501121E9, 0.0, 2024-02-26 19:08:21.501
146.0, 187500.0, 187500.0, 187500.0, 187500.0, -10945.358687085949, 187500.0, 187500.0, -182789.3475042996, 0.064, 0.0, 0.984, 192.0, 0.0, 0.0, 0.0, 0.0, 0.0, 0.0, 0.0, 0.0, 0.0, 1.708992501505116E9, 0.0, 2024-02-26 19:08:21.505
147.0, 187500.0, 187500.0, 187500.0, 187500.0, -11056.782133195655, 187500.0, 187500.0, -182733.82577107262, 0.062, 0.002, 0.984, 192.0, 1.0, 240.0, 0.0, 16.0, 30.0, 192.0, 0.0, 0.0, 0.0, 1.708992501510165E9, 0.0, 2024-02-26 19:08:21.510
148.0, 187500.0, 187500.0, 187500.0, 187500.0, -11133.828596333098, 187500.0, 187500.0, -182623.96694707478, 0.062, 0.002, 0.984, 192.0, 0.0, 0.0, 0.0, 0.0, 0.0, 0.0, 0.0, 0.0, 0.0, 1.708992501514132E9, 0.0, 2024-02-26 19:08:21.514
149.0, 187500.0, 187500.0, 187500.0, 187500.0, -11099.697482549846, 187500.0, 187500.0, -182620.99416506223, 0.062, 0.002, 0.984, 192.0, 0.0, 0.0, 0.0, 0.0, 0.0, 0.0, 0.0, 0.0, 0.0, 1.708992501518154E9, 0.0, 2024-02-26 19:08:21.518
150.0, 187500.0, 187500.0, 187500.0, 187500.0, -10977.947530501788, 187500.0, 187500.0, -182763.0842045646, 0.062, 0.002, 0.984, 192.0, 0.0, 0.0, 0.0, 0.0, 0.0, 0.0, 0.0, 0.0, 0.0, 1.708992501521152E9, 0.0, 2024-02-26 19:08:21.521
151.0, 187500.0, 187500.0, 187500.0, 187500.0, -11051.507121504203, 187500.0, 187500.0, -182735.70331760685, 0.062, 0.002, 0.984, 192.0, 0.0, 0.0, 0.0, 0.0, 0.0, 0.0, 0.0, 0.0, 0.0, 1.708992501525171E9, 0.0, 2024-02-26 19:08:21.525
152.0, 187500.0, 187500.0, 187500.0, 187500.0, -11142.813997604133, 187500.0, 187500.0, -182622.11175228498, 0.062, 0.002, 0.984, 192.0, 0.0, 0.0, 0.0, 0.0, 0.0, 0.0, 0.0, 0.0, 0.0, 1.708992501529175E9, 0.0, 2024-02-26 19:08:21.529
153.0, 187500.0, 187500.0, 187500.0, 187500.0, -11118.852927548043, 187500.0, 187500.0, -182602.3528101865, 0.062, 0.002, 0.984, 192.0, 0.0, 0.0, 0.0, 0.0, 0.0, 0.0, 0.0, 0.0, 0.0, 1.70899250153316E9, 0.0, 2024-02-26 19:08:21.533
154.0, 187500.0, 187500.0, 187500.0, 187500.0, -10992.789088820111, 187500.0, 187500.0, -182707.2718986597, 0.062, 0.002, 0.984, 192.0, 0.0, 0.0, 0.0, 0.0, 0.0, 0.0, 0.0, 0.0, 0.0, 1.708992501537161E9, 0.0, 2024-02-26 19:08:21.537
155.0, 187500.0, 187500.0, 187500.0, 187500.0, -10999.539315645614, 187500.0, 187500.0, -182735.21157922884, 0.062, 0.002, 0.984, 192.0, 0.0, 0.0, 0.0, 0.0, 0.0, 0.0, 0.0, 0.0, 0.0, 1.708992501542132E9, 0.0, 2024-02-26 19:08:21.542
156.0, 187500.0, 187500.0, 187500.0, 187500.0, -11113.779081556688, 187500.0, 187500.0, -182608.87951956745, 0.062, 0.002, 0.984, 192.0, 0.0, 0.0, 0.0, 0.0, 0.0, 0.0, 0.0, 0.0, 0.0, 1.708992501546138E9, 0.0, 2024-02-26 19:08:21.546
157.0, 187500.0, 187500.0, 187500.0, 187500.0, -11107.162965197918, 187500.0, 187500.0, -182608.27602246715, 0.068, 0.0, 0.982, 192.0, 2.0, 32.0, 0.0, 0.0, 30.0, 176.0, 0.0, 0.0, 0.0, 1.708992501550232E9, 0.0, 2024-02-26 19:08:21.550
158.0, 187500.0, 187500.0, 187500.0, 187500.0, -11009.374083205948, 187500.0, 187500.0, -182703.0250672132, 0.068, 0.0, 0.982, 192.0, 0.0, 0.0, 0.0, 0.0, 0.0, 0.0, 0.0, 0.0, 0.0, 1.708992501553164E9, 0.0, 2024-02-26 19:08:21.553
159.0, 187500.0, 187500.0, 187500.0, 187500.0, -10980.02624273613, 187500.0, 187500.0, -182771.4884604798, 0.068, 0.0, 0.982, 192.0, 0.0, 0.0, 0.0, 0.0, 0.0, 0.0, 0.0, 0.0, 0.0, 1.708992501557158E9, 0.0, 2024-02-26 19:08:21.557
160.0, 187500.0, 187500.0, 187500.0, 187500.0, -11110.24750593275, 187500.0, 187500.0, -182658.05335736912, 0.068, 0.0, 0.982, 192.0, 0.0, 0.0, 0.0, 0.0, 0.0, 0.0, 0.0, 0.0, 0.0, 1.708992501562176E9, 0.0, 2024-02-26 19:08:21.562
161.0, 187500.0, 187500.0, 187500.0, 187500.0, -11104.413700629915, 187500.0, 187500.0, -182633.5558454461, 0.068, 0.0, 0.982, 192.0, 0.0, 0.0, 0.0, 0.0, 0.0, 0.0, 0.0, 0.0, 0.0, 1.708992501565166E9, 0.0, 2024-02-26 19:08:21.565
162.0, 187500.0, 187500.0, 187500.0, 187500.0, -11015.65492339789, 187500.0, 187500.0, -182704.43322711388, 0.068, 0.0, 0.982, 192.0, 0.0, 0.0, 0.0, 0.0, 0.0, 0.0, 0.0, 0.0, 0.0, 1.708992501570188E9, 0.0, 2024-02-26 19:08:21.570
163.0, 187500.0, 187500.0, 187500.0, 187500.0, -10930.87475667891, 187500.0, 187500.0, -182821.31049887068, 0.068, 0.0, 0.982, 192.0, 0.0, 0.0, 0.0, 0.0, 0.0, 0.0, 0.0, 0.0, 0.0, 1.708992501574186E9, 0.0, 2024-02-26 19:08:21.574
164.0, 187500.0, 187500.0, 187500.0, 187500.0, -11064.851112944021, 187500.0, 187500.0, -182673.20784010983, 0.068, 0.0, 0.982, 192.0, 0.0, 0.0, 0.0, 0.0, 0.0, 0.0, 0.0, 0.0, 0.0, 1.708992501577201E9, 0.0, 2024-02-26 19:08:21.577
165.0, 187500.0, 187500.0, 187500.0, 187500.0, -11084.163020153406, 187500.0, 187500.0, -182585.27607742263, 0.068, 0.0, 0.982, 192.0, 0.0, 0.0, 0.0, 0.0, 0.0, 0.0, 0.0, 0.0, 0.0, 1.708992501581204E9, 0.0, 2024-02-26 19:08:21.581
166.0, 187500.0, 187500.0, 187500.0, 187500.0, -11014.93966757532, 187500.0, 187500.0, -182651.83957241054, 0.068, 0.0, 0.982, 192.0, 0.0, 0.0, 0.0, 0.0, 0.0, 0.0, 0.0, 0.0, 0.0, 1.708992501586196E9, 0.0, 2024-02-26 19:08:21.586
167.0, 187500.0, 187500.0, 187500.0, 187500.0, -10917.307247794539, 187500.0, 187500.0, -182788.0063996323, 0.066, 0.004, 0.976, 192.0, 2.0, 16.0, 0.0, 32.0, 30.0, 128.0, 0.0, 0.0, 0.0, 1.708992501590185E9, 0.0, 2024-02-26 19:08:21.590
168.0, 187500.0, 187500.0, 187500.0, 187500.0, -11061.498351275724, 187500.0, 187500.0, -182687.2670873722, 0.066, 0.004, 0.976, 192.0, 0.0, 0.0, 0.0, 0.0, 0.0, 0.0, 0.0, 0.0, 0.0, 1.708992501593215E9, 0.0, 2024-02-26 19:08:21.593
169.0, 187500.0, 187500.0, 187500.0, 187500.0, -11091.539095823658, 187500.0, 187500.0, -182611.38291494644, 0.066, 0.004, 0.976, 192.0, 0.0, 0.0, 0.0, 0.0, 0.0, 0.0, 0.0, 0.0, 0.0, 1.708992501597211E9, 0.0, 2024-02-26 19:08:21.597
170.0, 187500.0, 187500.0, 187500.0, 187500.0, -11042.454664999803, 187500.0, 187500.0, -182620.3012609841, 0.066, 0.004, 0.976, 192.0, 0.0, 0.0, 0.0, 0.0, 0.0, 0.0, 0.0, 0.0, 0.0, 1.708992501601202E9, 0.0, 2024-02-26 19:08:21.601
171.0, 187500.0, 187500.0, 187500.0, 187500.0, -10930.919460167821, 187500.0, 187500.0, -182761.96661734185, 0.066, 0.004, 0.976, 192.0, 0.0, 0.0, 0.0, 0.0, 0.0, 0.0, 0.0, 0.0, 0.0, 1.708992501605197E9, 0.0, 2024-02-26 19:08:21.605
172.0, 187500.0, 187500.0, 187500.0, 187500.0, -11044.488673745236, 187500.0, 187500.0, -182721.01822149972, 0.066, 0.004, 0.976, 192.0, 0.0, 0.0, 0.0, 0.0, 0.0, 0.0, 0.0, 0.0, 0.0, 1.708992501609212E9, 0.0, 2024-02-26 19:08:21.609
173.0, 187500.0, 187500.0, 187500.0, 187500.0, -11106.224191930794, 187500.0, 187500.0, -182609.77358934566, 0.066, 0.004, 0.976, 192.0, 0.0, 0.0, 0.0, 0.0, 0.0, 0.0, 0.0, 0.0, 0.0, 1.708992501614297E9, 0.0, 2024-02-26 19:08:21.614
174.0, 187500.0, 187500.0, 187500.0, 187500.0, -11072.7636304812, 187500.0, 187500.0, -182602.12929274194, 0.066, 0.004, 0.976, 192.0, 0.0, 0.0, 0.0, 0.0, 0.0, 0.0, 0.0, 0.0, 0.0, 1.708992501617215E9, 0.0, 2024-02-26 19:08:21.617
175.0, 187500.0, 187500.0, 187500.0, 187500.0, -10953.427666834315, 187500.0, 187500.0, -182709.90940450542, 0.066, 0.004, 0.976, 192.0, 0.0, 0.0, 0.0, 0.0, 0.0, 0.0, 0.0, 0.0, 0.0, 1.7089925016212E9, 0.0, 2024-02-26 19:08:21.621
176.0, 187500.0, 187500.0, 187500.0, 187500.0, -10989.615141107457, 187500.0, 187500.0, -182741.22419848733, 0.066, 0.004, 0.976, 192.0, 0.0, 0.0, 0.0, 0.0, 0.0, 0.0, 0.0, 0.0, 0.0, 1.708992501625258E9, 0.0, 2024-02-26 19:08:21.625
177.0, 187500.0, 187500.0, 187500.0, 187500.0, -11084.833572487065, 187500.0, 187500.0, -182635.52279895818, 0.068, 0.0, 0.978, 192.0, 2.0, 32.0, 0.0, 0.0, 30.0, 144.0, 0.0, 0.0, 0.0, 1.708992501631255E9, 0.0, 2024-02-26 19:08:21.631
178.0, 187500.0, 187500.0, 187500.0, 187500.0, -11060.134894863952, 187500.0, 187500.0, -182604.34211544303, 0.068, 0.0, 0.978, 192.0, 0.0, 0.0, 0.0, 0.0, 0.0, 0.0, 0.0, 0.0, 0.0, 1.708992501634267E9, 0.0, 2024-02-26 19:08:21.634
179.0, 187500.0, 187500.0, 187500.0, 187500.0, -10946.409219075349, 187500.0, 187500.0, -182714.96089875232, 0.068, 0.0, 0.978, 192.0, 0.0, 0.0, 0.0, 0.0, 0.0, 0.0, 0.0, 0.0, 0.0, 1.708992501637255E9, 0.0, 2024-02-26 19:08:21.637
180.0, 187500.0, 187500.0, 187500.0, 187500.0, -10954.12057091243, 187500.0, 187500.0, -182754.99287307178, 0.068, 0.0, 0.978, 192.0, 0.0, 0.0, 0.0, 0.0, 0.0, 0.0, 0.0, 0.0, 0.0, 1.708992501642255E9, 0.0, 2024-02-26 19:08:21.642
181.0, 187500.0, 187500.0, 187500.0, 187500.0, -11069.85790370201, 187500.0, 187500.0, -182637.1097728145, 0.068, 0.0, 0.978, 192.0, 0.0, 0.0, 0.0, 0.0, 0.0, 0.0, 0.0, 0.0, 0.0, 1.708992501645249E9, 0.0, 2024-02-26 19:08:21.645
182.0, 187500.0, 187500.0, 187500.0, 187500.0, -11067.242749600739, 187500.0, 187500.0, -182610.22062423476, 0.068, 0.0, 0.978, 192.0, 0.0, 0.0, 0.0, 0.0, 0.0, 0.0, 0.0, 0.0, 0.0, 1.708992501649245E9, 0.0, 2024-02-26 19:08:21.649
183.0, 187500.0, 187500.0, 187500.0, 187500.0, -10960.826094249021, 187500.0, 187500.0, -182691.08923567407, 0.068, 0.0, 0.978, 192.0, 0.0, 0.0, 0.0, 0.0, 0.0, 0.0, 0.0, 0.0, 0.0, 1.708992501653244E9, 0.0, 2024-02-26 19:08:21.653
184.0, 187500.0, 187500.0, 187500.0, 187500.0, -10899.716424908213, 187500.0, 187500.0, -182781.1444140845, 0.068, 0.0, 0.978, 192.0, 0.0, 0.0, 0.0, 0.0, 0.0, 0.0, 0.0, 0.0, 0.0, 1.70899250165724E9, 0.0, 2024-02-26 19:08:21.657
185.0, 187500.0, 187500.0, 187500.0, 187500.0, -11039.593641709524, 187500.0, 187500.0, -182626.4032872204, 0.068, 0.0, 0.978, 192.0, 0.0, 0.0, 0.0, 0.0, 0.0, 0.0, 0.0, 0.0, 0.0, 1.70899250166124E9, 0.0, 2024-02-26 19:08:21.661
186.0, 187500.0, 187500.0, 187500.0, 187500.0, -11043.438141755836, 187500.0, 187500.0, -182584.98550474472, 0.064, -0.002, 0.982, 192.0, 2.0, 0.0, 255.0, 240.0, 30.0, 176.0, 0.0, 0.0, 0.0, 1.708992501665278E9, 0.0, 2024-02-26 19:08:21.665
187.0, 187500.0, 187500.0, 187500.0, 187500.0, -10947.415047575838, 187500.0, 187500.0, -182670.88325868646, 0.064, -0.002, 0.982, 192.0, 0.0, 0.0, 0.0, 0.0, 0.0, 0.0, 0.0, 0.0, 0.0, 1.708992501670305E9, 0.0, 2024-02-26 19:08:21.670
188.0, 187500.0, 187500.0, 187500.0, 187500.0, -10857.046944743031, 187500.0, 187500.0, -182763.46418422036, 0.064, -0.002, 0.982, 192.0, 0.0, 0.0, 0.0, 0.0, 0.0, 0.0, 0.0, 0.0, 0.0, 1.708992501673301E9, 0.0, 2024-02-26 19:08:21.673
189.0, 187500.0, 187500.0, 187500.0, 187500.0, -10990.777431819133, 187500.0, 187500.0, -182670.77149996418, 0.064, -0.002, 0.982, 192.0, 0.0, 0.0, 0.0, 0.0, 0.0, 0.0, 0.0, 0.0, 0.0, 1.708992501677295E9, 0.0, 2024-02-26 19:08:21.677
190.0, 187500.0, 187500.0, 187500.0, 187500.0, -11013.84443209701, 187500.0, 187500.0, -182599.2012142183, 0.064, -0.002, 0.982, 192.0, 0.0, 0.0, 0.0, 0.0, 0.0, 0.0, 0.0, 0.0, 0.0, 1.708992501681303E9, 0.0, 2024-02-26 19:08:21.681
191.0, 187500.0, 187500.0, 187500.0, 187500.0, -10961.317832627039, 187500.0, 187500.0, -182634.0028803352, 0.064, -0.002, 0.982, 192.0, 0.0, 0.0, 0.0, 0.0, 0.0, 0.0, 0.0, 0.0, 0.0, 1.708992501685293E9, 0.0, 2024-02-26 19:08:21.685
192.0, 187500.0, 187500.0, 187500.0, 187500.0, -10869.876846060377, 187500.0, 187500.0, -182774.1930215589, 0.064, -0.002, 0.982, 192.0, 0.0, 0.0, 0.0, 0.0, 0.0, 0.0, 0.0, 0.0, 0.0, 1.708992501689288E9, 0.0, 2024-02-26 19:08:21.689
193.0, 187500.0, 187500.0, 187500.0, 187500.0, -10991.693853341802, 187500.0, 187500.0, -182684.02608442618, 0.064, -0.002, 0.982, 192.0, 0.0, 0.0, 0.0, 0.0, 0.0, 0.0, 0.0, 0.0, 0.0, 1.708992501693285E9, 0.0, 2024-02-26 19:08:21.693
194.0, 187500.0, 187500.0, 187500.0, 187500.0, -11034.966830607276, 187500.0, 187500.0, -182589.79112980262, 0.064, -0.002, 0.982, 192.0, 0.0, 0.0, 0.0, 0.0, 0.0, 0.0, 0.0, 0.0, 0.0, 1.708992501698298E9, 0.0, 2024-02-26 19:08:21.698
195.0, 187500.0, 187500.0, 187500.0, 187500.0, -11000.098109256996, 187500.0, 187500.0, -182602.77749333114, 0.064, -0.002, 0.982, 192.0, 0.0, 0.0, 0.0, 0.0, 0.0, 0.0, 0.0, 0.0, 0.0, 1.708992501701287E9, 0.0, 2024-02-26 19:08:21.701
196.0, 187500.0, 187500.0, 187500.0, 187500.0, -10895.96133183972, 187500.0, 187500.0, -182766.05698657717, 0.062, -0.004, 0.984, 192.0, 1.0, 240.0, 255.0, 224.0, 30.0, 192.0, 0.0, 0.0, 0.0, 1.708992501705278E9, 0.0, 2024-02-26 19:08:21.705
197.0, 187500.0, 187500.0, 187500.0, 187500.0, -10997.035920266619, 187500.0, 187500.0, -182721.5323116222, 0.062, -0.004, 0.984, 192.0, 0.0, 0.0, 0.0, 0.0, 0.0, 0.0, 0.0, 0.0, 0.0, 1.708992501709353E9, 0.0, 2024-02-26 19:08:21.709
198.0, 187500.0, 187500.0, 187500.0, 187500.0, -11073.881217703965, 187500.0, 187500.0, -182626.2468250092, 0.062, -0.004, 0.984, 192.0, 0.0, 0.0, 0.0, 0.0, 0.0, 0.0, 0.0, 0.0, 0.0, 1.708992501713324E9, 0.0, 2024-02-26 19:08:21.713
199.0, 187500.0, 187500.0, 187500.0, 187500.0, -11061.297185575628, 187500.0, 187500.0, -182622.51408368518, 0.062, -0.004, 0.984, 192.0, 0.0, 0.0, 0.0, 0.0, 0.0, 0.0, 0.0, 0.0, 0.0, 1.708992501717346E9, 0.0, 2024-02-26 19:08:21.717
200.0, 187500.0, 187500.0, 187500.0, 187500.0, -10919.251849562152, 187500.0, 187500.0, -182761.85485861957, 0.062, -0.004, 0.984, 192.0, 0.0, 0.0, 0.0, 0.0, 0.0, 0.0, 0.0, 0.0, 0.0, 1.708992501721331E9, 0.0, 2024-02-26 19:08:21.721
201.0, 187500.0, 187500.0, 187500.0, 187500.0, -10953.561777301047, 187500.0, 187500.0, -182771.15318431298, 0.062, -0.004, 0.984, 192.0, 0.0, 0.0, 0.0, 0.0, 0.0, 0.0, 0.0, 0.0, 0.0, 1.708992501726329E9, 0.0, 2024-02-26 19:08:21.726
202.0, 187500.0, 187500.0, 187500.0, 187500.0, -11068.293281590139, 187500.0, 187500.0, -182631.0077465782, 0.062, -0.004, 0.984, 192.0, 0.0, 0.0, 0.0, 0.0, 0.0, 0.0, 0.0, 0.0, 0.0, 1.708992501730332E9, 0.0, 2024-02-26 19:08:21.730
203.0, 187500.0, 187500.0, 187500.0, 187500.0, -11055.843359928533, 187500.0, 187500.0, -182602.06223750857, 0.062, -0.004, 0.984, 192.0, 0.0, 0.0, 0.0, 0.0, 0.0, 0.0, 0.0, 0.0, 0.0, 1.708992501733335E9, 0.0, 2024-02-26 19:08:21.733
204.0, 187500.0, 187500.0, 187500.0, 187500.0, -10955.014640690642, 187500.0, 187500.0, -182701.4157416124, 0.062, -0.004, 0.984, 192.0, 0.0, 0.0, 0.0, 0.0, 0.0, 0.0, 0.0, 0.0, 0.0, 1.708992501737328E9, 0.0, 2024-02-26 19:08:21.737
205.0, 187500.0, 187500.0, 187500.0, 187500.0, -10960.22259714873, 187500.0, 187500.0, -182736.12800075152, 0.062, -0.004, 0.984, 192.0, 0.0, 0.0, 0.0, 0.0, 0.0, 0.0, 0.0, 0.0, 0.0, 1.708992501741333E9, 0.0, 2024-02-26 19:08:21.741
206.0, 187500.0, 187500.0, 187500.0, 187500.0, -11083.447764330836, 187500.0, 187500.0, -182631.32067100058, 0.06, 0.002, 0.98, 192.0, 1.0, 224.0, 0.0, 16.0, 30.0, 160.0, 0.0, 0.0, 0.0, 1.70899250174538E9, 0.0, 2024-02-26 19:08:21.745
207.0, 187500.0, 187500.0, 187500.0, 187500.0, -11079.647967773435, 187500.0, 187500.0, -182612.63461263594, 0.06, 0.002, 0.98, 192.0, 0.0, 0.0, 0.0, 0.0, 0.0, 0.0, 0.0, 0.0, 0.0, 1.708992501749393E9, 0.0, 2024-02-26 19:08:21.749
208.0, 187500.0, 187500.0, 187500.0, 187500.0, -11001.685083113323, 187500.0, 187500.0, -182682.05913091413, 0.06, 0.002, 0.98, 192.0, 0.0, 0.0, 0.0, 0.0, 0.0, 0.0, 0.0, 0.0, 0.0, 1.708992501753372E9, 0.0, 2024-02-26 19:08:21.753
209.0, 187500.0, 187500.0, 187500.0, 187500.0, -10946.49862605317, 187500.0, 187500.0, -182766.61578018856, 0.06, 0.002, 0.98, 192.0, 0.0, 0.0, 0.0, 0.0, 0.0, 0.0, 0.0, 0.0, 0.0, 1.708992501756378E9, 0.0, 2024-02-26 19:08:21.756
210.0, 187500.0, 187500.0, 187500.0, 187500.0, -11071.355470580516, 187500.0, 187500.0, -182654.9241131454, 0.06, 0.002, 0.98, 192.0, 0.0, 0.0, 0.0, 0.0, 0.0, 0.0, 0.0, 0.0, 0.0, 1.708992501760387E9, 0.0, 2024-02-26 19:08:21.760
211.0, 187500.0, 187500.0, 187500.0, 187500.0, -11068.963833923797, 187500.0, 187500.0, -182603.89508055392, 0.06, 0.002, 0.98, 192.0, 0.0, 0.0, 0.0, 0.0, 0.0, 0.0, 0.0, 0.0, 0.0, 1.708992501765372E9, 0.0, 2024-02-26 19:08:21.765
212.0, 187500.0, 187500.0, 187500.0, 187500.0, -10988.251684695684, 187500.0, 187500.0, -182654.34296778953, 0.06, 0.002, 0.98, 192.0, 0.0, 0.0, 0.0, 0.0, 0.0, 0.0, 0.0, 0.0, 0.0, 1.708992501769538E9, 0.0, 2024-02-26 19:08:21.769
213.0, 187500.0, 187500.0, 187500.0, 187500.0, -10903.024483087598, 187500.0, 187500.0, -182769.29798952318, 0.06, 0.002, 0.98, 192.0, 0.0, 0.0, 0.0, 0.0, 0.0, 0.0, 0.0, 0.0, 0.0, 1.708992501773373E9, 0.0, 2024-02-26 19:08:21.773
214.0, 187500.0, 187500.0, 187500.0, 187500.0, -11024.193289779818, 187500.0, 187500.0, -182652.5101247442, 0.06, 0.002, 0.98, 192.0, 0.0, 0.0, 0.0, 0.0, 0.0, 0.0, 0.0, 0.0, 0.0, 1.708992501777374E9, 0.0, 2024-02-26 19:08:21.777
215.0, 187500.0, 187500.0, 187500.0, 187500.0, -11017.286600743128, 187500.0, 187500.0, -182575.12838543992, 0.06, 0.002, 0.98, 192.0, 0.0, 0.0, 0.0, 0.0, 0.0, 0.0, 0.0, 0.0, 0.0, 1.708992501781417E9, 0.0, 2024-02-26 19:08:21.781
216.0, 187500.0, 187500.0, 187500.0, 187500.0, -10968.760963530656, 187500.0, 187500.0, -182633.73465940176, 0.058, 0.0, 0.98, 192.0, 1.0, 208.0, 0.0, 0.0, 30.0, 160.0, 0.0, 0.0, 0.0, 1.708992501784406E9, 0.0, 2024-02-26 19:08:21.784
217.0, 187500.0, 187500.0, 187500.0, 187500.0, -10861.651404100825, 187500.0, 187500.0, -182774.95298087038, 0.058, 0.0, 0.98, 192.0, 0.0, 0.0, 0.0, 0.0, 0.0, 0.0, 0.0, 0.0, 0.0, 1.70899250178839E9, 0.0, 2024-02-26 19:08:21.788
218.0, 187500.0, 187500.0, 187500.0, 187500.0, -10976.338204901005, 187500.0, 187500.0, -182702.376866624, 0.058, 0.0, 0.98, 192.0, 0.0, 0.0, 0.0, 0.0, 0.0, 0.0, 0.0, 0.0, 0.0, 1.708992501793417E9, 0.0, 2024-02-26 19:08:21.793
219.0, 187500.0, 187500.0, 187500.0, 187500.0, -11031.412903238881, 187500.0, 187500.0, -182612.76872310266, 0.058, 0.0, 0.98, 192.0, 0.0, 0.0, 0.0, 0.0, 0.0, 0.0, 0.0, 0.0, 0.0, 1.708992501797427E9, 0.0, 2024-02-26 19:08:21.797
220.0, 187500.0, 187500.0, 187500.0, 187500.0, -10999.338149945515, 187500.0, 187500.0, -182614.66862138137, 0.058, 0.0, 0.98, 192.0, 0.0, 0.0, 0.0, 0.0, 0.0, 0.0, 0.0, 0.0, 0.0, 1.708992501801431E9, 0.0, 2024-02-26 19:08:21.801
221.0, 187500.0, 187500.0, 187500.0, 187500.0, -10884.003148556132, 187500.0, 187500.0, -182751.32718698113, 0.058, 0.0, 0.98, 192.0, 0.0, 0.0, 0.0, 0.0, 0.0, 0.0, 0.0, 0.0, 0.0, 1.708992501805424E9, 0.0, 2024-02-26 19:08:21.805
222.0, 187500.0, 187500.0, 187500.0, 187500.0, -10958.54621631458, 187500.0, 187500.0, -182725.51092213523, 0.058, 0.0, 0.98, 192.0, 0.0, 0.0, 0.0, 0.0, 0.0, 0.0, 0.0, 0.0, 0.0, 1.708992501809431E9, 0.0, 2024-02-26 19:08:21.809
223.0, 187500.0, 187500.0, 187500.0, 187500.0, -11043.75106617821, 187500.0, 187500.0, -182619.09426678353, 0.058, 0.0, 0.98, 192.0, 0.0, 0.0, 0.0, 0.0, 0.0, 0.0, 0.0, 0.0, 0.0, 1.708992501812414E9, 0.0, 2024-02-26 19:08:21.812
224.0, 187500.0, 187500.0, 187500.0, 187500.0, -11014.47028094176, 187500.0, 187500.0, -182607.51606315566, 0.058, 0.0, 0.98, 192.0, 0.0, 0.0, 0.0, 0.0, 0.0, 0.0, 0.0, 0.0, 0.0, 1.708992501816414E9, 0.0, 2024-02-26 19:08:21.816
225.0, 187500.0, 187500.0, 187500.0, 187500.0, -10881.365642710405, 187500.0, 187500.0, -182725.0862389906, 0.058, 0.0, 0.98, 192.0, 0.0, 0.0, 0.0, 0.0, 0.0, 0.0, 0.0, 0.0, 0.0, 1.708992501821449E9, 0.0, 2024-02-26 19:08:21.821
226.0, 187500.0, 187500.0, 187500.0, 187500.0, -10905.34906451095, 187500.0, 187500.0, -182765.2299720323, 0.066, -0.002, 0.984, 192.0, 2.0, 16.0, 255.0, 240.0, 30.0, 192.0, 0.0, 0.0, 0.0, 1.708992501825427E9, 0.0, 2024-02-26 19:08:21.825
227.0, 187500.0, 187500.0, 187500.0, 187500.0, -10998.958170289776, 187500.0, 187500.0, -182631.4547814673, 0.066, -0.002, 0.984, 192.0, 0.0, 0.0, 0.0, 0.0, 0.0, 0.0, 0.0, 0.0, 0.0, 1.708992501829416E9, 0.0, 2024-02-26 19:08:21.829
228.0, 187500.0, 187500.0, 187500.0, 187500.0, -10998.22056272275, 187500.0, 187500.0, -182601.99518227522, 0.066, -0.002, 0.984, 192.0, 0.0, 0.0, 0.0, 0.0, 0.0, 0.0, 0.0, 0.0, 0.0, 1.708992501833422E9, 0.0, 2024-02-26 19:08:21.833
229.0, 187500.0, 187500.0, 187500.0, 187500.0, -10876.939997308255, 187500.0, 187500.0, -182713.88801501849, 0.066, -0.002, 0.984, 192.0, 0.0, 0.0, 0.0, 0.0, 0.0, 0.0, 0.0, 0.0, 0.0, 1.708992501837413E9, 0.0, 2024-02-26 19:08:21.837
230.0, 187500.0, 187500.0, 187500.0, 187500.0, -10852.151912707319, 187500.0, 187500.0, -182774.50594598128, 0.066, -0.002, 0.984, 192.0, 0.0, 0.0, 0.0, 0.0, 0.0, 0.0, 0.0, 0.0, 0.0, 1.708992501840463E9, 0.0, 2024-02-26 19:08:21.840
231.0, 187500.0, 187500.0, 187500.0, 187500.0, -10970.50439959817, 187500.0, 187500.0, -182635.58985419152, 0.066, -0.002, 0.984, 192.0, 0.0, 0.0, 0.0, 0.0, 0.0, 0.0, 0.0, 0.0, 0.0, 1.708992501844466E9, 0.0, 2024-02-26 19:08:21.844
232.0, 187500.0, 187500.0, 187500.0, 187500.0, -10955.953413957764, 187500.0, 187500.0, -182602.17399623085, 0.066, -0.002, 0.984, 192.0, 0.0, 0.0, 0.0, 0.0, 0.0, 0.0, 0.0, 0.0, 0.0, 1.70899250184947E9, 0.0, 2024-02-26 19:08:21.849
233.0, 187500.0, 187500.0, 187500.0, 187500.0, -10861.29377618954, 187500.0, 187500.0, -182661.875505671, 0.066, -0.002, 0.984, 192.0, 0.0, 0.0, 0.0, 0.0, 0.0, 0.0, 0.0, 0.0, 0.0, 1.708992501853466E9, 0.0, 2024-02-26 19:08:21.853
234.0, 187500.0, 187500.0, 187500.0, 187500.0, -10788.762365432069, 187500.0, 187500.0, -182752.19890501487, 0.066, -0.002, 0.984, 192.0, 0.0, 0.0, 0.0, 0.0, 0.0, 0.0, 0.0, 0.0, 0.0, 1.708992501857449E9, 0.0, 2024-02-26 19:08:21.857
235.0, 187500.0, 187500.0, 187500.0, 187500.0, -10923.20810833074, 187500.0, 187500.0, -182627.76674363218, 0.066, -0.002, 0.984, 192.0, 0.0, 0.0, 0.0, 0.0, 0.0, 0.0, 0.0, 0.0, 0.0, 1.708992501861458E9, 0.0, 2024-02-26 19:08:21.861
236.0, 187500.0, 187500.0, 187500.0, 187500.0, -10914.937962882277, 187500.0, 187500.0, -182595.91550778336, 0.062, 0.0, 0.982, 192.0, 1.0, 240.0, 0.0, 0.0, 30.0, 176.0, 0.0, 0.0, 0.0, 1.70899250186445E9, 0.0, 2024-02-26 19:08:21.864
237.0, 187500.0, 187500.0, 187500.0, 187500.0, -10839.634935812348, 187500.0, 187500.0, -182657.85219166902, 0.062, 0.0, 0.982, 192.0, 0.0, 0.0, 0.0, 0.0, 0.0, 0.0, 0.0, 0.0, 0.0, 1.708992501868449E9, 0.0, 2024-02-26 19:08:21.868
238.0, 187500.0, 187500.0, 187500.0, 187500.0, -10750.384420202307, 187500.0, 187500.0, -182792.16382410095, 0.062, 0.0, 0.982, 192.0, 0.0, 0.0, 0.0, 0.0, 0.0, 0.0, 0.0, 0.0, 0.0, 1.70899250187246E9, 0.0, 2024-02-26 19:08:21.872
239.0, 187500.0, 187500.0, 187500.0, 187500.0, -10890.574561425992, 187500.0, 187500.0, -182678.41579656792, 0.062, 0.0, 0.982, 192.0, 0.0, 0.0, 0.0, 0.0, 0.0, 0.0, 0.0, 0.0, 0.0, 1.708992501876454E9, 0.0, 2024-02-26 19:08:21.876
240.0, 187500.0, 187500.0, 187500.0, 187500.0, -10927.365532799427, 187500.0, 187500.0, -182592.71920832625, 0.062, 0.0, 0.982, 192.0, 0.0, 0.0, 0.0, 0.0, 0.0, 0.0, 0.0, 0.0, 0.0, 1.708992501881449E9, 0.0, 2024-02-26 19:08:21.881
241.0, 187500.0, 187500.0, 187500.0, 187500.0, -10870.927378049777, 187500.0, 187500.0, -182619.02721155016, 0.062, 0.0, 0.982, 192.0, 0.0, 0.0, 0.0, 0.0, 0.0, 0.0, 0.0, 0.0, 0.0, 1.708992501885501E9, 0.0, 2024-02-26 19:08:21.885
242.0, 187500.0, 187500.0, 187500.0, 187500.0, -10752.664298136748, 187500.0, 187500.0, -182760.84903011908, 0.062, 0.0, 0.982, 192.0, 0.0, 0.0, 0.0, 0.0, 0.0, 0.0, 0.0, 0.0, 0.0, 1.708992501889477E9, 0.0, 2024-02-26 19:08:21.889
243.0, 187500.0, 187500.0, 187500.0, 187500.0, -10862.85839830141, 187500.0, 187500.0, -182692.0727124301, 0.062, 0.0, 0.982, 192.0, 0.0, 0.0, 0.0, 0.0, 0.0, 0.0, 0.0, 0.0, 0.0, 1.708992501892516E9, 0.0, 2024-02-26 19:08:21.892
244.0, 187500.0, 187500.0, 187500.0, 187500.0, -10916.368474527417, 187500.0, 187500.0, -182602.71043809777, 0.062, 0.0, 0.982, 192.0, 0.0, 0.0, 0.0, 0.0, 0.0, 0.0, 0.0, 0.0, 0.0, 1.708992501896506E9, 0.0, 2024-02-26 19:08:21.896
245.0, 187500.0, 187500.0, 187500.0, 187500.0, -10860.310299433506, 187500.0, 187500.0, -182614.17688300335, 0.062, 0.0, 0.982, 192.0, 0.0, 0.0, 0.0, 0.0, 0.0, 0.0, 0.0, 0.0, 0.0, 1.708992501900509E9, 0.0, 2024-02-26 19:08:21.900
246.0, 187500.0, 187500.0, 187500.0, 187500.0, -10734.000591516566, 187500.0, 187500.0, -182766.638131933, 0.062, 0.006, 0.98, 192.0, 1.0, 240.0, 0.0, 48.0, 30.0, 160.0, 0.0, 0.0, 0.0, 1.708992501905519E9, 0.0, 2024-02-26 19:08:21.905
247.0, 187500.0, 187500.0, 187500.0, 187500.0, -10790.684615455224, 187500.0, 187500.0, -182739.32430020862, 0.062, 0.006, 0.98, 192.0, 0.0, 0.0, 0.0, 0.0, 0.0, 0.0, 0.0, 0.0, 0.0, 1.708992501909528E9, 0.0, 2024-02-26 19:08:21.909
248.0, 187500.0, 187500.0, 187500.0, 187500.0, -10862.746639579134, 187500.0, 187500.0, -182613.21575799177, 0.062, 0.006, 0.98, 192.0, 0.0, 0.0, 0.0, 0.0, 0.0, 0.0, 0.0, 0.0, 0.0, 1.708992501913532E9, 0.0, 2024-02-26 19:08:21.913
249.0, 187500.0, 187500.0, 187500.0, 187500.0, -10821.23945012563, 187500.0, 187500.0, -182592.56274611506, 0.062, 0.006, 0.98, 192.0, 0.0, 0.0, 0.0, 0.0, 0.0, 0.0, 0.0, 0.0, 0.0, 1.708992501916536E9, 0.0, 2024-02-26 19:08:21.916
250.0, 187500.0, 187500.0, 187500.0, 187500.0, -10692.336939851873, 187500.0, 187500.0, -182699.15821542242, 0.062, 0.006, 0.98, 192.0, 0.0, 0.0, 0.0, 0.0, 0.0, 0.0, 0.0, 0.0, 0.0, 1.708992501920546E9, 0.0, 2024-02-26 19:08:21.920
251.0, 187500.0, 187500.0, 187500.0, 187500.0, -10688.827715972391, 187500.0, 187500.0, -182736.66444261844, 0.062, 0.006, 0.98, 192.0, 0.0, 0.0, 0.0, 0.0, 0.0, 0.0, 0.0, 0.0, 0.0, 1.708992501924548E9, 0.0, 2024-02-26 19:08:21.924
252.0, 187500.0, 187500.0, 187500.0, 187500.0, -10794.596170734903, 187500.0, 187500.0, -182634.53932220212, 0.062, 0.006, 0.98, 192.0, 0.0, 0.0, 0.0, 0.0, 0.0, 0.0, 0.0, 0.0, 0.0, 1.708992501928535E9, 0.0, 2024-02-26 19:08:21.928
253.0, 187500.0, 187500.0, 187500.0, 187500.0, -10774.077269324931, 187500.0, 187500.0, -182598.26244095116, 0.062, 0.006, 0.98, 192.0, 0.0, 0.0, 0.0, 0.0, 0.0, 0.0, 0.0, 0.0, 0.0, 1.708992501932543E9, 0.0, 2024-02-26 19:08:21.932
254.0, 187500.0, 187500.0, 187500.0, 187500.0, -10651.388544009751, 187500.0, 187500.0, -182671.68792148685, 0.062, 0.006, 0.98, 192.0, 0.0, 0.0, 0.0, 0.0, 0.0, 0.0, 0.0, 0.0, 0.0, 1.708992501937546E9, 0.0, 2024-02-26 19:08:21.937
255.0, 187500.0, 187500.0, 187500.0, 187500.0, -10599.018406750967, 187500.0, 187500.0, -182724.6392041015, 0.062, 0.006, 0.98, 192.0, 0.0, 0.0, 0.0, 0.0, 0.0, 0.0, 0.0, 0.0, 0.0, 1.708992501941542E9, 0.0, 2024-02-26 19:08:21.941
0.0, 187500.0, 187500.0, 187500.0, 187500.0, -10706.887925492278, 187500.0, 187500.0, -182629.86780761098, 0.062, -0.002, 0.978, 192.0, 1.0, 240.0, 255.0, 240.0, 30.0, 144.0, 0.0, 0.0, 0.0, 1.708992501944545E9, 0.0, 2024-02-26 19:08:21.944
1.0, 187500.0, 187500.0, 187500.0, 187500.0, -10672.890922175757, 187500.0, 187500.0, -182593.63562984893, 0.062, -0.002, 0.978, 192.0, 0.0, 0.0, 0.0, 0.0, 0.0, 0.0, 0.0, 0.0, 0.0, 1.708992501948541E9, 0.0, 2024-02-26 19:08:21.948
2.0, 187500.0, 187500.0, 187500.0, 187500.0, -10552.549130028383, 187500.0, 187500.0, -182647.3021682861, 0.062, -0.002, 0.978, 192.0, 0.0, 0.0, 0.0, 0.0, 0.0, 0.0, 0.0, 0.0, 0.0, 1.708992501952539E9, 0.0, 2024-02-26 19:08:21.952
3.0, 187500.0, 187500.0, 187500.0, 187500.0, -10449.060553200312, 187500.0, 187500.0, -182749.89667533597, 0.062, -0.002, 0.978, 192.0, 0.0, 0.0, 0.0, 0.0, 0.0, 0.0, 0.0, 0.0, 0.0, 1.708992501956585E9, 0.0, 2024-02-26 19:08:21.956
4.0, 187500.0, 187500.0, 187500.0, 187500.0, -10553.465551551051, 187500.0, 187500.0, -182641.02132809418, 0.062, -0.002, 0.978, 192.0, 0.0, 0.0, 0.0, 0.0, 0.0, 0.0, 0.0, 0.0, 0.0, 1.708992501960586E9, 0.0, 2024-02-26 19:08:21.960
