%OpenBCI Raw EXG Data
%Number of channels = 8
%Sample Rate = 250 Hz
%Board = OpenBCI_GUI$BoardCytonSerial
Sample Index, EXG Channel 0, EXG Channel 1, EXG Channel 2, EXG Channel 3, EXG Channel 4, EXG Channel 5, EXG Channel 6, EXG Channel 7, Accel Channel 0, Accel Channel 1, Accel Channel 2, Other, Other, Other, Other, Other, Other, Other, Analog Channel 0, Analog Channel 1, Analog Channel 2, Timestamp, Other, Timestamp (Formatted)
251.0, 187500.0, 187500.0, 187500.0, 187500.0, -17642.053084618223, 187500.0, 187500.0, -183147.48950570697, 0.0, 0.0, 0.0, 192.0, 0.0, 0.0, 0.0, 0.0, 0.0, 0.0, 0.0, 0.0, 0.0, 1.708992642116404E9, 0.0, 2024-02-26 19:10:42.116
252.0, 187500.0, 187500.0, 187500.0, 187500.0, -17700.346434157662, 187500.0, 187500.0, -183072.6111617817, 0.0, 0.0, 0.0, 192.0, 0.0, 0.0, 0.0, 0.0, 0.0, 0.0, 0.0, 0.0, 0.0, 1.708992642116455E9, 0.0, 2024-02-26 19:10:42.116
0.0, 0.0, 0.0, 0.0, 0.0, 0.0, 0.0, 0.0, 0.0, 0.062, 0.002, 0.98, 192.0, 1.0, 240.0, 0.0, 16.0, 30.0, 160.0, 0.0, 0.0, 0.0, 1.708992642198093E9, 0.0, 2024-02-26 19:10:42.198
1.0, 187500.0, 187500.0, 187500.0, 187500.0, -145686.90457187945, 187500.0, 187500.0, -187500.02235174447, 0.062, 0.002, 0.98, 192.0, 0.0, 0.0, 0.0, 0.0, 0.0, 0.0, 0.0, 0.0, 0.0, 1.70899264221511E9, 0.0, 2024-02-26 19:10:42.215
2.0, 187500.0, 187500.0, 187500.0, 187500.0, -145606.88532672948, 187500.0, 187500.0, -187500.02235174447, 0.062, 0.002, 0.98, 192.0, 0.0, 0.0, 0.0, 0.0, 0.0, 0.0, 0.0, 0.0, 0.0, 1.70899264221808E9, 0.0, 2024-02-26 19:10:42.218
3.0, 187500.0, 187500.0, 187500.0, 187500.0, -145618.70939954632, 187500.0, 187500.0, -187500.02235174447, 0.062, 0.002, 0.98, 192.0, 0.0, 0.0, 0.0, 0.0, 0.0, 0.0, 0.0, 0.0, 0.0, 1.708992642221073E9, 0.0, 2024-02-26 19:10:42.221
4.0, 187500.0, 187500.0, 187500.0, 187500.0, -145656.23797848678, 187500.0, 187500.0, -187500.02235174447, 0.062, 0.002, 0.98, 192.0, 0.0, 0.0, 0.0, 0.0, 0.0, 0.0, 0.0, 0.0, 0.0, 1.70899264222412E9, 0.0, 2024-02-26 19:10:42.224
5.0, 187500.0, 187500.0, 187500.0, 187500.0, -145685.5411154677, 187500.0, 187500.0, -187500.02235174447, 0.062, 0.002, 0.98, 192.0, 0.0, 0.0, 0.0, 0.0, 0.0, 0.0, 0.0, 0.0, 0.0, 1.708992642229122E9, 0.0, 2024-02-26 19:10:42.229
6.0, 187500.0, 187500.0, 187500.0, 187500.0, -145621.30220190313, 187500.0, 187500.0, -187500.02235174447, 0.062, 0.002, 0.98, 192.0, 0.0, 0.0, 0.0, 0.0, 0.0, 0.0, 0.0, 0.0, 0.0, 1.708992642233109E9, 0.0, 2024-02-26 19:10:42.233
7.0, 187500.0, 187500.0, 187500.0, 187500.0, -145562.47241049676, 187500.0, 187500.0, -187500.02235174447, 0.062, 0.002, 0.98, 192.0, 0.0, 0.0, 0.0, 0.0, 0.0, 0.0, 0.0, 0.0, 0.0, 1.708992642237109E9, 0.0, 2024-02-26 19:10:42.237
8.0, 187500.0, 187500.0, 187500.0, 187500.0, -145523.13334025544, 187500.0, 187500.0, -187500.02235174447, 0.064, -0.002, 0.984, 192.0, 2.0, 0.0, 255.0, 240.0, 30.0, 192.0, 0.0, 0.0, 0.0, 1.708992642241124E9, 0.0, 2024-02-26 19:10:42.241
9.0, 187500.0, 187500.0, 187500.0, 187500.0, -145556.63860519393, 187500.0, 187500.0, -187500.02235174447, 0.064, -0.002, 0.984, 192.0, 0.0, 0.0, 0.0, 0.0, 0.0, 0.0, 0.0, 0.0, 0.0, 1.708992642245116E9, 0.0, 2024-02-26 19:10:42.245
10.0, 187500.0, 187500.0, 187500.0, 187500.0, -145503.17323245684, 187500.0, 187500.0, -187500.02235174447, 0.064, -0.002, 0.984, 192.0, 0.0, 0.0, 0.0, 0.0, 0.0, 0.0, 0.0, 0.0, 0.0, 1.708992642248118E9, 0.0, 2024-02-26 19:10:42.248
11.0, 187500.0, 187500.0, 187500.0, 187500.0, -145473.15483965338, 187500.0, 187500.0, -187500.02235174447, 0.064, -0.002, 0.984, 192.0, 0.0, 0.0, 0.0, 0.0, 0.0, 0.0, 0.0, 0.0, 0.0, 1.708992642252117E9, 0.0, 2024-02-26 19:10:42.252
12.0, 187500.0, 187500.0, 187500.0, 187500.0, -145533.7504188717, 187500.0, 187500.0, -187500.02235174447, 0.064, -0.002, 0.984, 192.0, 0.0, 0.0, 0.0, 0.0, 0.0, 0.0, 0.0, 0.0, 0.0, 1.708992642257101E9, 0.0, 2024-02-26 19:10:42.257
13.0, 187500.0, 187500.0, 187500.0, 187500.0, -145611.80271050963, 187500.0, 187500.0, -187500.02235174447, 0.064, -0.002, 0.984, 192.0, 0.0, 0.0, 0.0, 0.0, 0.0, 0.0, 0.0, 0.0, 0.0, 1.708992642261099E9, 0.0, 2024-02-26 19:10:42.261
14.0, 187500.0, 187500.0, 187500.0, 187500.0, -145578.14098335995, 187500.0, 187500.0, -187500.02235174447, 0.064, -0.002, 0.984, 192.0, 0.0, 0.0, 0.0, 0.0, 0.0, 0.0, 0.0, 0.0, 0.0, 1.708992642265102E9, 0.0, 2024-02-26 19:10:42.265
15.0, 187500.0, 187500.0, 187500.0, 187500.0, -145521.3899041879, 187500.0, 187500.0, -187500.02235174447, 0.064, -0.002, 0.984, 192.0, 0.0, 0.0, 0.0, 0.0, 0.0, 0.0, 0.0, 0.0, 0.0, 1.708992642268103E9, 0.0, 2024-02-26 19:10:42.268
16.0, 187500.0, 187500.0, 187500.0, 187500.0, -145552.97291910325, 187500.0, 187500.0, -187500.02235174447, 0.064, -0.002, 0.984, 192.0, 0.0, 0.0, 0.0, 0.0, 0.0, 0.0, 0.0, 0.0, 0.0, 1.708992642272102E9, 0.0, 2024-02-26 19:10:42.272
17.0, 187500.0, 187500.0, 187500.0, 187500.0, -145597.5199458027, 187500.0, 187500.0, -187500.02235174447, 0.064, -0.002, 0.986, 192.0, 2.0, 0.0, 255.0, 240.0, 30.0, 208.0, 0.0, 0.0, 0.0, 1.708992642276108E9, 0.0, 2024-02-26 19:10:42.276
18.0, 187500.0, 187500.0, 187500.0, 187500.0, -145542.62406142047, 187500.0, 187500.0, -187500.02235174447, 0.064, -0.002, 0.986, 192.0, 0.0, 0.0, 0.0, 0.0, 0.0, 0.0, 0.0, 0.0, 0.0, 1.708992642280115E9, 0.0, 2024-02-26 19:10:42.280
19.0, 187500.0, 187500.0, 187500.0, 187500.0, -145423.06458032902, 187500.0, 187500.0, -187500.02235174447, 0.064, -0.002, 0.986, 192.0, 0.0, 0.0, 0.0, 0.0, 0.0, 0.0, 0.0, 0.0, 0.0, 1.70899264228616E9, 0.0, 2024-02-26 19:10:42.286
20.0, 187500.0, 187500.0, 187500.0, 187500.0, -145388.79935607905, 187500.0, 187500.0, -187500.02235174447, 0.064, -0.002, 0.986, 192.0, 0.0, 0.0, 0.0, 0.0, 0.0, 0.0, 0.0, 0.0, 0.0, 1.70899264228916E9, 0.0, 2024-02-26 19:10:42.289
21.0, 187500.0, 187500.0, 187500.0, 187500.0, -145401.8304230965, 187500.0, 187500.0, -187500.02235174447, 0.064, -0.002, 0.986, 192.0, 0.0, 0.0, 0.0, 0.0, 0.0, 0.0, 0.0, 0.0, 0.0, 1.708992642293149E9, 0.0, 2024-02-26 19:10:42.293
22.0, 187500.0, 187500.0, 187500.0, 187500.0, -145350.82374224946, 187500.0, 187500.0, -187500.02235174447, 0.064, -0.002, 0.986, 192.0, 0.0, 0.0, 0.0, 0.0, 0.0, 0.0, 0.0, 0.0, 0.0, 1.708992642296174E9, 0.0, 2024-02-26 19:10:42.296
23.0, 187500.0, 187500.0, 187500.0, 187500.0, -145239.9814414956, 187500.0, 187500.0, -187500.02235174447, 0.064, -0.002, 0.986, 192.0, 0.0, 0.0, 0.0, 0.0, 0.0, 0.0, 0.0, 0.0, 0.0, 1.708992642301181E9, 0.0, 2024-02-26 19:10:42.301
24.0, 187500.0, 187500.0, 187500.0, 187500.0, -145233.94647049266, 187500.0, 187500.0, -187500.02235174447, 0.064, -0.002, 0.986, 192.0, 0.0, 0.0, 0.0, 0.0, 0.0, 0.0, 0.0, 0.0, 0.0, 1.708992642305163E9, 0.0, 2024-02-26 19:10:42.305
25.0, 187500.0, 187500.0, 187500.0, 187500.0, -145303.25923004857, 187500.0, 187500.0, -187500.02235174447, 0.064, -0.002, 0.986, 192.0, 0.0, 0.0, 0.0, 0.0, 0.0, 0.0, 0.0, 0.0, 0.0, 1.708992642309174E9, 0.0, 2024-02-26 19:10:42.309
26.0, 187500.0, 187500.0, 187500.0, 187500.0, -145291.56926769845, 187500.0, 187500.0, -187500.02235174447, 0.064, -0.002, 0.986, 192.0, 0.0, 0.0, 0.0, 0.0, 0.0, 0.0, 0.0, 0.0, 0.0, 1.708992642312166E9, 0.0, 2024-02-26 19:10:42.312
27.0, 187500.0, 187500.0, 187500.0, 187500.0, -145153.59194917584, 187500.0, 187500.0, -187500.02235174447, 0.062, -0.004, 0.986, 192.0, 1.0, 240.0, 255.0, 224.0, 30.0, 208.0, 0.0, 0.0, 0.0, 1.708992642316168E9, 0.0, 2024-02-26 19:10:42.316
28.0, 187500.0, 187500.0, 187500.0, 187500.0, -145118.83498654782, 187500.0, 187500.0, -187500.02235174447, 0.062, -0.004, 0.986, 192.0, 0.0, 0.0, 0.0, 0.0, 0.0, 0.0, 0.0, 0.0, 0.0, 1.708992642320152E9, 0.0, 2024-02-26 19:10:42.320
29.0, 187500.0, 187500.0, 187500.0, 187500.0, -145201.7152549881, 187500.0, 187500.0, -187500.02235174447, 0.062, -0.004, 0.986, 192.0, 0.0, 0.0, 0.0, 0.0, 0.0, 0.0, 0.0, 0.0, 0.0, 1.708992642324155E9, 0.0, 2024-02-26 19:10:42.324
30.0, 187500.0, 187500.0, 187500.0, 187500.0, -145251.0232032565, 187500.0, 187500.0, -187500.02235174447, 0.062, -0.004, 0.986, 192.0, 0.0, 0.0, 0.0, 0.0, 0.0, 0.0, 0.0, 0.0, 0.0, 1.708992642329208E9, 0.0, 2024-02-26 19:10:42.329
31.0, 187500.0, 187500.0, 187500.0, 187500.0, -145199.23421135359, 187500.0, 187500.0, -187500.02235174447, 0.062, -0.004, 0.986, 192.0, 0.0, 0.0, 0.0, 0.0, 0.0, 0.0, 0.0, 0.0, 0.0, 1.708992642333206E9, 0.0, 2024-02-26 19:10:42.333
32.0, 187500.0, 187500.0, 187500.0, 187500.0, -145182.53745824547, 187500.0, 187500.0, -187500.02235174447, 0.062, -0.004, 0.986, 192.0, 0.0, 0.0, 0.0, 0.0, 0.0, 0.0, 0.0, 0.0, 0.0, 1.708992642336204E9, 0.0, 2024-02-26 19:10:42.336
33.0, 187500.0, 187500.0, 187500.0, 187500.0, -145250.84438930088, 187500.0, 187500.0, -187500.02235174447, 0.062, -0.004, 0.986, 192.0, 0.0, 0.0, 0.0, 0.0, 0.0, 0.0, 0.0, 0.0, 0.0, 1.708992642340203E9, 0.0, 2024-02-26 19:10:42.340
34.0, 187500.0, 187500.0, 187500.0, 187500.0, -145337.0997711539, 187500.0, 187500.0, -187500.02235174447, 0.062, -0.004, 0.986, 192.0, 0.0, 0.0, 0.0, 0.0, 0.0, 0.0, 0.0, 0.0, 0.0, 1.708992642344203E9, 0.0, 2024-02-26 19:10:42.344
35.0, 187500.0, 187500.0, 187500.0, 187500.0, -145341.72658225615, 187500.0, 187500.0, -187500.02235174447, 0.062, -0.004, 0.986, 192.0, 0.0, 0.0, 0.0, 0.0, 0.0, 0.0, 0.0, 0.0, 0.0, 1.708992642348188E9, 0.0, 2024-02-26 19:10:42.348
36.0, 187500.0, 187500.0, 187500.0, 187500.0, -145329.9025094393, 187500.0, 187500.0, -187500.02235174447, 0.062, -0.004, 0.986, 192.0, 0.0, 0.0, 0.0, 0.0, 0.0, 0.0, 0.0, 0.0, 0.0, 1.708992642352197E9, 0.0, 2024-02-26 19:10:42.352
37.0, 187500.0, 187500.0, 187500.0, 187500.0, -145387.88293455637, 187500.0, 187500.0, -187500.02235174447, 0.064, -0.004, 0.986, 192.0, 2.0, 0.0, 255.0, 224.0, 30.0, 208.0, 0.0, 0.0, 0.0, 1.708992642356198E9, 0.0, 2024-02-26 19:10:42.356
38.0, 187500.0, 187500.0, 187500.0, 187500.0, -145458.55915052406, 187500.0, 187500.0, -187500.02235174447, 0.064, -0.004, 0.986, 192.0, 0.0, 0.0, 0.0, 0.0, 0.0, 0.0, 0.0, 0.0, 0.0, 1.708992642361194E9, 0.0, 2024-02-26 19:10:42.361
39.0, 187500.0, 187500.0, 187500.0, 187500.0, -145448.9702521527, 187500.0, 187500.0, -187500.02235174447, 0.064, -0.004, 0.986, 192.0, 0.0, 0.0, 0.0, 0.0, 0.0, 0.0, 0.0, 0.0, 0.0, 1.708992642364185E9, 0.0, 2024-02-26 19:10:42.364
40.0, 187500.0, 187500.0, 187500.0, 187500.0, -145415.50969070313, 187500.0, 187500.0, -187500.02235174447, 0.064, -0.004, 0.986, 192.0, 0.0, 0.0, 0.0, 0.0, 0.0, 0.0, 0.0, 0.0, 0.0, 1.708992642368257E9, 0.0, 2024-02-26 19:10:42.368
41.0, 187500.0, 187500.0, 187500.0, 187500.0, -145472.7972117421, 187500.0, 187500.0, -187500.02235174447, 0.064, -0.004, 0.986, 192.0, 0.0, 0.0, 0.0, 0.0, 0.0, 0.0, 0.0, 0.0, 0.0, 1.708992642372245E9, 0.0, 2024-02-26 19:10:42.372
42.0, 187500.0, 187500.0, 187500.0, 187500.0, -145548.27905276764, 187500.0, 187500.0, -187500.02235174447, 0.064, -0.004, 0.986, 192.0, 0.0, 0.0, 0.0, 0.0, 0.0, 0.0, 0.0, 0.0, 0.0, 1.708992642376245E9, 0.0, 2024-02-26 19:10:42.376
43.0, 187500.0, 187500.0, 187500.0, 187500.0, -145545.12745679944, 187500.0, 187500.0, -187500.02235174447, 0.064, -0.004, 0.986, 192.0, 0.0, 0.0, 0.0, 0.0, 0.0, 0.0, 0.0, 0.0, 0.0, 1.708992642380253E9, 0.0, 2024-02-26 19:10:42.380
44.0, 187500.0, 187500.0, 187500.0, 187500.0, -145485.87298224843, 187500.0, 187500.0, -187500.02235174447, 0.064, -0.004, 0.986, 192.0, 0.0, 0.0, 0.0, 0.0, 0.0, 0.0, 0.0, 0.0, 0.0, 1.708992642385253E9, 0.0, 2024-02-26 19:10:42.385
45.0, 187500.0, 187500.0, 187500.0, 187500.0, -145534.3092124831, 187500.0, 187500.0, -187500.02235174447, 0.064, -0.004, 0.986, 192.0, 0.0, 0.0, 0.0, 0.0, 0.0, 0.0, 0.0, 0.0, 0.0, 1.70899264238926E9, 0.0, 2024-02-26 19:10:42.389
46.0, 187500.0, 187500.0, 187500.0, 187500.0, -145636.68020208838, 187500.0, 187500.0, -187500.02235174447, 0.064, -0.004, 0.986, 192.0, 0.0, 0.0, 0.0, 0.0, 0.0, 0.0, 0.0, 0.0, 0.0, 1.708992642392246E9, 0.0, 2024-02-26 19:10:42.392
47.0, 187500.0, 187500.0, 187500.0, 187500.0, -145648.45957141634, 187500.0, 187500.0, -187500.02235174447, 0.07, -0.004, 0.978, 192.0, 2.0, 48.0, 255.0, 224.0, 30.0, 144.0, 0.0, 0.0, 0.0, 1.70899264239624E9, 0.0, 2024-02-26 19:10:42.396
48.0, 187500.0, 187500.0, 187500.0, 187500.0, -145547.54144520062, 187500.0, 187500.0, -187500.02235174447, 0.07, -0.004, 0.978, 192.0, 0.0, 0.0, 0.0, 0.0, 0.0, 0.0, 0.0, 0.0, 0.0, 1.708992642400254E9, 0.0, 2024-02-26 19:10:42.400
49.0, 187500.0, 187500.0, 187500.0, 187500.0, -145574.87762866946, 187500.0, 187500.0, -187500.02235174447, 0.07, -0.004, 0.978, 192.0, 0.0, 0.0, 0.0, 0.0, 0.0, 0.0, 0.0, 0.0, 0.0, 1.708992642405262E9, 0.0, 2024-02-26 19:10:42.405
50.0, 187500.0, 187500.0, 187500.0, 187500.0, -145665.0222140577, 187500.0, 187500.0, -187500.02235174447, 0.07, -0.004, 0.978, 192.0, 0.0, 0.0, 0.0, 0.0, 0.0, 0.0, 0.0, 0.0, 0.0, 1.708992642408236E9, 0.0, 2024-02-26 19:10:42.408
51.0, 187500.0, 187500.0, 187500.0, 187500.0, -145693.3418742826, 187500.0, 187500.0, -187500.02235174447, 0.07, -0.004, 0.978, 192.0, 0.0, 0.0, 0.0, 0.0, 0.0, 0.0, 0.0, 0.0, 0.0, 1.708992642412233E9, 0.0, 2024-02-26 19:10:42.412
52.0, 187500.0, 187500.0, 187500.0, 187500.0, -145600.20215513732, 187500.0, 187500.0, -187500.02235174447, 0.07, -0.004, 0.978, 192.0, 0.0, 0.0, 0.0, 0.0, 0.0, 0.0, 0.0, 0.0, 0.0, 1.708992642417286E9, 0.0, 2024-02-26 19:10:42.417
53.0, 187500.0, 187500.0, 187500.0, 187500.0, -145636.45668464384, 187500.0, 187500.0, -187500.02235174447, 0.07, -0.004, 0.978, 192.0, 0.0, 0.0, 0.0, 0.0, 0.0, 0.0, 0.0, 0.0, 0.0, 1.708992642420279E9, 0.0, 2024-02-26 19:10:42.420
54.0, 187500.0, 187500.0, 187500.0, 187500.0, -145732.61388929057, 187500.0, 187500.0, -187500.02235174447, 0.07, -0.004, 0.978, 192.0, 0.0, 0.0, 0.0, 0.0, 0.0, 0.0, 0.0, 0.0, 0.0, 1.708992642424281E9, 0.0, 2024-02-26 19:10:42.424
55.0, 187500.0, 187500.0, 187500.0, 187500.0, -145811.3143815177, 187500.0, 187500.0, -187500.02235174447, 0.07, -0.004, 0.978, 192.0, 0.0, 0.0, 0.0, 0.0, 0.0, 0.0, 0.0, 0.0, 0.0, 1.708992642428309E9, 0.0, 2024-02-26 19:10:42.428
56.0, 187500.0, 187500.0, 187500.0, 187500.0, -145758.78778204773, 187500.0, 187500.0, -187500.02235174447, 0.07, -0.004, 0.978, 192.0, 0.0, 0.0, 0.0, 0.0, 0.0, 0.0, 0.0, 0.0, 0.0, 1.708992642432299E9, 0.0, 2024-02-26 19:10:42.432
57.0, 187500.0, 187500.0, 187500.0, 187500.0, -145741.62164230607, 187500.0, 187500.0, -187500.02235174447, 0.064, -0.004, 0.98, 192.0, 2.0, 0.0, 255.0, 224.0, 30.0, 160.0, 0.0, 0.0, 0.0, 1.708992642436288E9, 0.0, 2024-02-26 19:10:42.436
58.0, 187500.0, 187500.0, 187500.0, 187500.0, -145809.2580210278, 187500.0, 187500.0, -187500.02235174447, 0.064, -0.004, 0.98, 192.0, 0.0, 0.0, 0.0, 0.0, 0.0, 0.0, 0.0, 0.0, 0.0, 1.70899264244028E9, 0.0, 2024-02-26 19:10:42.440
59.0, 187500.0, 187500.0, 187500.0, 187500.0, -145876.670882305, 187500.0, 187500.0, -187500.02235174447, 0.064, -0.004, 0.98, 192.0, 0.0, 0.0, 0.0, 0.0, 0.0, 0.0, 0.0, 0.0, 0.0, 1.70899264244529E9, 0.0, 2024-02-26 19:10:42.445
60.0, 187500.0, 187500.0, 187500.0, 187500.0, -145823.98782062385, 187500.0, 187500.0, -187500.02235174447, 0.064, -0.004, 0.98, 192.0, 0.0, 0.0, 0.0, 0.0, 0.0, 0.0, 0.0, 0.0, 0.0, 1.708992642448278E9, 0.0, 2024-02-26 19:10:42.448
61.0, 187500.0, 187500.0, 187500.0, 187500.0, -145756.1055727131, 187500.0, 187500.0, -187500.02235174447, 0.064, -0.004, 0.98, 192.0, 0.0, 0.0, 0.0, 0.0, 0.0, 0.0, 0.0, 0.0, 0.0, 1.708992642452289E9, 0.0, 2024-02-26 19:10:42.452
62.0, 187500.0, 187500.0, 187500.0, 187500.0, -145750.38352613253, 187500.0, 187500.0, -187500.02235174447, 0.064, -0.004, 0.98, 192.0, 0.0, 0.0, 0.0, 0.0, 0.0, 0.0, 0.0, 0.0, 0.0, 1.708992642457306E9, 0.0, 2024-02-26 19:10:42.457
63.0, 187500.0, 187500.0, 187500.0, 187500.0, -145819.9645066219, 187500.0, 187500.0, -187500.02235174447, 0.064, -0.004, 0.98, 192.0, 0.0, 0.0, 0.0, 0.0, 0.0, 0.0, 0.0, 0.0, 0.0, 1.708992642461312E9, 0.0, 2024-02-26 19:10:42.461
64.0, 187500.0, 187500.0, 187500.0, 187500.0, -145769.51661938627, 187500.0, 187500.0, -187500.02235174447, 0.064, -0.004, 0.98, 192.0, 0.0, 0.0, 0.0, 0.0, 0.0, 0.0, 0.0, 0.0, 0.0, 1.70899264246434E9, 0.0, 2024-02-26 19:10:42.464
65.0, 187500.0, 187500.0, 187500.0, 187500.0, -145672.0406618167, 187500.0, 187500.0, -187500.02235174447, 0.064, -0.004, 0.98, 192.0, 0.0, 0.0, 0.0, 0.0, 0.0, 0.0, 0.0, 0.0, 0.0, 1.708992642469296E9, 0.0, 2024-02-26 19:10:42.469
66.0, 187500.0, 187500.0, 187500.0, 187500.0, -145707.04349363368, 187500.0, 187500.0, -187500.02235174447, 0.064, -0.004, 0.98, 192.0, 0.0, 0.0, 0.0, 0.0, 0.0, 0.0, 0.0, 0.0, 0.0, 1.708992642472336E9, 0.0, 2024-02-26 19:10:42.472
67.0, 187500.0, 187500.0, 187500.0, 187500.0, -145798.12685228908, 187500.0, 187500.0, -187500.02235174447, 0.062, 0.0, 0.976, 192.0, 1.0, 240.0, 0.0, 0.0, 30.0, 128.0, 0.0, 0.0, 0.0, 1.70899264247532E9, 0.0, 2024-02-26 19:10:42.475
68.0, 187500.0, 187500.0, 187500.0, 187500.0, -145815.78473040878, 187500.0, 187500.0, -187500.02235174447, 0.062, 0.0, 0.976, 192.0, 0.0, 0.0, 0.0, 0.0, 0.0, 0.0, 0.0, 0.0, 0.0, 1.708992642480348E9, 0.0, 2024-02-26 19:10:42.480
69.0, 187500.0, 187500.0, 187500.0, 187500.0, -145705.41181628846, 187500.0, 187500.0, -187500.02235174447, 0.062, 0.0, 0.976, 192.0, 0.0, 0.0, 0.0, 0.0, 0.0, 0.0, 0.0, 0.0, 0.0, 1.708992642484336E9, 0.0, 2024-02-26 19:10:42.484
70.0, 187500.0, 187500.0, 187500.0, 187500.0, -145715.76067397126, 187500.0, 187500.0, -187500.02235174447, 0.062, 0.0, 0.976, 192.0, 0.0, 0.0, 0.0, 0.0, 0.0, 0.0, 0.0, 0.0, 0.0, 1.708992642488328E9, 0.0, 2024-02-26 19:10:42.488
71.0, 187500.0, 187500.0, 187500.0, 187500.0, -145816.924669376, 187500.0, 187500.0, -187500.02235174447, 0.062, 0.0, 0.976, 192.0, 0.0, 0.0, 0.0, 0.0, 0.0, 0.0, 0.0, 0.0, 0.0, 1.708992642492342E9, 0.0, 2024-02-26 19:10:42.492
72.0, 187500.0, 187500.0, 187500.0, 187500.0, -145821.08209384469, 187500.0, 187500.0, -187500.02235174447, 0.062, 0.0, 0.976, 192.0, 0.0, 0.0, 0.0, 0.0, 0.0, 0.0, 0.0, 0.0, 0.0, 1.708992642497357E9, 0.0, 2024-02-26 19:10:42.497
73.0, 187500.0, 187500.0, 187500.0, 187500.0, -145755.8150000352, 187500.0, 187500.0, -187500.02235174447, 0.062, 0.0, 0.976, 192.0, 0.0, 0.0, 0.0, 0.0, 0.0, 0.0, 0.0, 0.0, 0.0, 1.70899264250036E9, 0.0, 2024-02-26 19:10:42.500
74.0, 187500.0, 187500.0, 187500.0, 187500.0, -145766.6108926071, 187500.0, 187500.0, -187500.02235174447, 0.062, 0.0, 0.976, 192.0, 0.0, 0.0, 0.0, 0.0, 0.0, 0.0, 0.0, 0.0, 0.0, 1.708992642503382E9, 0.0, 2024-02-26 19:10:42.503
75.0, 187500.0, 187500.0, 187500.0, 187500.0, -145840.14813186505, 187500.0, 187500.0, -187500.02235174447, 0.062, 0.0, 0.976, 192.0, 0.0, 0.0, 0.0, 0.0, 0.0, 0.0, 0.0, 0.0, 0.0, 1.70899264250838E9, 0.0, 2024-02-26 19:10:42.508
76.0, 187500.0, 187500.0, 187500.0, 187500.0, -145868.75836476785, 187500.0, 187500.0, -187500.02235174447, 0.062, 0.0, 0.976, 192.0, 0.0, 0.0, 0.0, 0.0, 0.0, 0.0, 0.0, 0.0, 0.0, 1.708992642513372E9, 0.0, 2024-02-26 19:10:42.513
77.0, 187500.0, 187500.0, 187500.0, 187500.0, -145780.89365731404, 187500.0, 187500.0, -187500.02235174447, 0.064, -0.004, 0.978, 192.0, 2.0, 0.0, 255.0, 224.0, 30.0, 144.0, 0.0, 0.0, 0.0, 1.708992642517377E9, 0.0, 2024-02-26 19:10:42.517
78.0, 187500.0, 187500.0, 187500.0, 187500.0, -145757.08904946913, 187500.0, 187500.0, -187500.02235174447, 0.064, -0.004, 0.978, 192.0, 0.0, 0.0, 0.0, 0.0, 0.0, 0.0, 0.0, 0.0, 0.0, 1.708992642520375E9, 0.0, 2024-02-26 19:10:42.520
79.0, 187500.0, 187500.0, 187500.0, 187500.0, -145849.80408546975, 187500.0, 187500.0, -187500.02235174447, 0.064, -0.004, 0.978, 192.0, 0.0, 0.0, 0.0, 0.0, 0.0, 0.0, 0.0, 0.0, 0.0, 1.708992642524362E9, 0.0, 2024-02-26 19:10:42.524
80.0, 187500.0, 187500.0, 187500.0, 187500.0, -145895.8486790477, 187500.0, 187500.0, -187500.02235174447, 0.064, -0.004, 0.978, 192.0, 0.0, 0.0, 0.0, 0.0, 0.0, 0.0, 0.0, 0.0, 0.0, 1.70899264252838E9, 0.0, 2024-02-26 19:10:42.528
81.0, 187500.0, 187500.0, 187500.0, 187500.0, -145796.49517494385, 187500.0, 187500.0, -187500.02235174447, 0.064, -0.004, 0.978, 192.0, 0.0, 0.0, 0.0, 0.0, 0.0, 0.0, 0.0, 0.0, 0.0, 1.708992642531363E9, 0.0, 2024-02-26 19:10:42.531
82.0, 187500.0, 187500.0, 187500.0, 187500.0, -145718.17466237245, 187500.0, 187500.0, -187500.02235174447, 0.064, -0.004, 0.978, 192.0, 0.0, 0.0, 0.0, 0.0, 0.0, 0.0, 0.0, 0.0, 0.0, 1.708992642536419E9, 0.0, 2024-02-26 19:10:42.536
83.0, 187500.0, 187500.0, 187500.0, 187500.0, -145729.50699681128, 187500.0, 187500.0, -187500.02235174447, 0.064, -0.004, 0.978, 192.0, 0.0, 0.0, 0.0, 0.0, 0.0, 0.0, 0.0, 0.0, 0.0, 1.708992642540487E9, 0.0, 2024-02-26 19:10:42.540
84.0, 187500.0, 187500.0, 187500.0, 187500.0, -145748.84125576512, 187500.0, 187500.0, -187500.02235174447, 0.064, -0.004, 0.978, 192.0, 0.0, 0.0, 0.0, 0.0, 0.0, 0.0, 0.0, 0.0, 0.0, 1.708992642544402E9, 0.0, 2024-02-26 19:10:42.544
85.0, 187500.0, 187500.0, 187500.0, 187500.0, -145685.51876372323, 187500.0, 187500.0, -187500.02235174447, 0.064, -0.004, 0.978, 192.0, 0.0, 0.0, 0.0, 0.0, 0.0, 0.0, 0.0, 0.0, 0.0, 1.708992642548405E9, 0.0, 2024-02-26 19:10:42.548
86.0, 187500.0, 187500.0, 187500.0, 187500.0, -145633.88623403147, 187500.0, 187500.0, -187500.02235174447, 0.064, -0.004, 0.978, 192.0, 0.0, 0.0, 0.0, 0.0, 0.0, 0.0, 0.0, 0.0, 0.0, 1.708992642552398E9, 0.0, 2024-02-26 19:10:42.552
87.0, 187500.0, 187500.0, 187500.0, 187500.0, -145672.3312344946, 187500.0, 187500.0, -187500.02235174447, 0.058, 0.0, 0.976, 192.0, 1.0, 208.0, 0.0, 0.0, 30.0, 128.0, 0.0, 0.0, 0.0, 1.708992642556405E9, 0.0, 2024-02-26 19:10:42.556
88.0, 187500.0, 187500.0, 187500.0, 187500.0, -145722.3991420745, 187500.0, 187500.0, -187500.02235174447, 0.058, 0.0, 0.976, 192.0, 0.0, 0.0, 0.0, 0.0, 0.0, 0.0, 0.0, 0.0, 0.0, 1.70899264255944E9, 0.0, 2024-02-26 19:10:42.559
89.0, 187500.0, 187500.0, 187500.0, 187500.0, -145680.66843517643, 187500.0, 187500.0, -187500.02235174447, 0.058, 0.0, 0.976, 192.0, 0.0, 0.0, 0.0, 0.0, 0.0, 0.0, 0.0, 0.0, 0.0, 1.708992642563402E9, 0.0, 2024-02-26 19:10:42.563
90.0, 187500.0, 187500.0, 187500.0, 187500.0, -145576.95634090382, 187500.0, 187500.0, -187500.02235174447, 0.058, 0.0, 0.976, 192.0, 0.0, 0.0, 0.0, 0.0, 0.0, 0.0, 0.0, 0.0, 0.0, 1.708992642568404E9, 0.0, 2024-02-26 19:10:42.568
91.0, 187500.0, 187500.0, 187500.0, 187500.0, -145550.42482023535, 187500.0, 187500.0, -187500.02235174447, 0.058, 0.0, 0.976, 192.0, 0.0, 0.0, 0.0, 0.0, 0.0, 0.0, 0.0, 0.0, 0.0, 1.708992642572399E9, 0.0, 2024-02-26 19:10:42.572
92.0, 187500.0, 187500.0, 187500.0, 187500.0, -145550.17895104634, 187500.0, 187500.0, -187500.02235174447, 0.058, 0.0, 0.976, 192.0, 0.0, 0.0, 0.0, 0.0, 0.0, 0.0, 0.0, 0.0, 0.0, 1.7089926425764E9, 0.0, 2024-02-26 19:10:42.576
93.0, 187500.0, 187500.0, 187500.0, 187500.0, -145475.591179799, 187500.0, 187500.0, -187500.02235174447, 0.058, 0.0, 0.976, 192.0, 0.0, 0.0, 0.0, 0.0, 0.0, 0.0, 0.0, 0.0, 0.0, 1.708992642580446E9, 0.0, 2024-02-26 19:10:42.580
94.0, 187500.0, 187500.0, 187500.0, 187500.0, -145330.17073037277, 187500.0, 187500.0, -187500.02235174447, 0.058, 0.0, 0.976, 192.0, 0.0, 0.0, 0.0, 0.0, 0.0, 0.0, 0.0, 0.0, 0.0, 1.708992642584452E9, 0.0, 2024-02-26 19:10:42.584
95.0, 187500.0, 187500.0, 187500.0, 187500.0, -145263.11549700683, 187500.0, 187500.0, -187500.02235174447, 0.058, 0.0, 0.976, 192.0, 0.0, 0.0, 0.0, 0.0, 0.0, 0.0, 0.0, 0.0, 0.0, 1.708992642587451E9, 0.0, 2024-02-26 19:10:42.587
96.0, 187500.0, 187500.0, 187500.0, 187500.0, -145301.62755270334, 187500.0, 187500.0, -187500.02235174447, 0.06, 0.0, 0.98, 192.0, 1.0, 224.0, 0.0, 0.0, 30.0, 160.0, 0.0, 0.0, 0.0, 1.708992642592451E9, 0.0, 2024-02-26 19:10:42.592
97.0, 187500.0, 187500.0, 187500.0, 187500.0, -145263.5848836404, 187500.0, 187500.0, -187500.02235174447, 0.06, 0.0, 0.98, 192.0, 0.0, 0.0, 0.0, 0.0, 0.0, 0.0, 0.0, 0.0, 0.0, 1.708992642596455E9, 0.0, 2024-02-26 19:10:42.596
98.0, 187500.0, 187500.0, 187500.0, 187500.0, -145151.20031251913, 187500.0, 187500.0, -187500.02235174447, 0.06, 0.0, 0.98, 192.0, 0.0, 0.0, 0.0, 0.0, 0.0, 0.0, 0.0, 0.0, 0.0, 1.708992642600451E9, 0.0, 2024-02-26 19:10:42.600
99.0, 187500.0, 187500.0, 187500.0, 187500.0, -145121.74071332702, 187500.0, 187500.0, -187500.02235174447, 0.06, 0.0, 0.98, 192.0, 0.0, 0.0, 0.0, 0.0, 0.0, 0.0, 0.0, 0.0, 0.0, 1.708992642604469E9, 0.0, 2024-02-26 19:10:42.604
100.0, 187500.0, 187500.0, 187500.0, 187500.0, -145132.46955066558, 187500.0, 187500.0, -187500.02235174447, 0.06, 0.0, 0.98, 192.0, 0.0, 0.0, 0.0, 0.0, 0.0, 0.0, 0.0, 0.0, 0.0, 1.708992642607453E9, 0.0, 2024-02-26 19:10:42.607
101.0, 187500.0, 187500.0, 187500.0, 187500.0, -145129.5638238864, 187500.0, 187500.0, -187500.02235174447, 0.06, 0.0, 0.98, 192.0, 0.0, 0.0, 0.0, 0.0, 0.0, 0.0, 0.0, 0.0, 0.0, 1.708992642611452E9, 0.0, 2024-02-26 19:10:42.611
102.0, 187500.0, 187500.0, 187500.0, 187500.0, -144952.40389733363, 187500.0, 187500.0, -187500.02235174447, 0.06, 0.0, 0.98, 192.0, 0.0, 0.0, 0.0, 0.0, 0.0, 0.0, 0.0, 0.0, 0.0, 1.708992642615492E9, 0.0, 2024-02-26 19:10:42.615
103.0, 187500.0, 187500.0, 187500.0, 187500.0, -144846.70249780448, 187500.0, 187500.0, -187500.02235174447, 0.06, 0.0, 0.98, 192.0, 0.0, 0.0, 0.0, 0.0, 0.0, 0.0, 0.0, 0.0, 0.0, 1.708992642619498E9, 0.0, 2024-02-26 19:10:42.619
104.0, 187500.0, 187500.0, 187500.0, 187500.0, -144851.35166065118, 187500.0, 187500.0, -187500.02235174447, 0.06, 0.0, 0.98, 192.0, 0.0, 0.0, 0.0, 0.0, 0.0, 0.0, 0.0, 0.0, 0.0, 1.708992642624506E9, 0.0, 2024-02-26 19:10:42.624
105.0, 187500.0, 187500.0, 187500.0, 187500.0, -144876.20680048547, 187500.0, 187500.0, -187500.02235174447, 0.06, 0.0, 0.98, 192.0, 0.0, 0.0, 0.0, 0.0, 0.0, 0.0, 0.0, 0.0, 0.0, 1.708992642628516E9, 0.0, 2024-02-26 19:10:42.628
106.0, 187500.0, 187500.0, 187500.0, 187500.0, -144757.54138917226, 187500.0, 187500.0, -187500.02235174447, 0.064, 0.002, 0.978, 192.0, 2.0, 0.0, 0.0, 16.0, 30.0, 144.0, 0.0, 0.0, 0.0, 1.708992642632508E9, 0.0, 2024-02-26 19:10:42.632
107.0, 187500.0, 187500.0, 187500.0, 187500.0, -144689.5473825392, 187500.0, 187500.0, -187500.02235174447, 0.064, 0.002, 0.978, 192.0, 0.0, 0.0, 0.0, 0.0, 0.0, 0.0, 0.0, 0.0, 0.0, 1.708992642635504E9, 0.0, 2024-02-26 19:10:42.635
108.0, 187500.0, 187500.0, 187500.0, 187500.0, -144705.17125191347, 187500.0, 187500.0, -187500.02235174447, 0.064, 0.002, 0.978, 192.0, 0.0, 0.0, 0.0, 0.0, 0.0, 0.0, 0.0, 0.0, 0.0, 1.7089926426395E9, 0.0, 2024-02-26 19:10:42.639
109.0, 187500.0, 187500.0, 187500.0, 187500.0, -144747.48310416736, 187500.0, 187500.0, -187500.02235174447, 0.064, 0.002, 0.978, 192.0, 0.0, 0.0, 0.0, 0.0, 0.0, 0.0, 0.0, 0.0, 0.0, 1.7089926426435E9, 0.0, 2024-02-26 19:10:42.643
110.0, 187500.0, 187500.0, 187500.0, 187500.0, -144705.48417633586, 187500.0, 187500.0, -187500.02235174447, 0.064, 0.002, 0.978, 192.0, 0.0, 0.0, 0.0, 0.0, 0.0, 0.0, 0.0, 0.0, 0.0, 1.708992642647491E9, 0.0, 2024-02-26 19:10:42.647
111.0, 187500.0, 187500.0, 187500.0, 187500.0, -144661.18301882542, 187500.0, 187500.0, -187500.02235174447, 0.064, 0.002, 0.978, 192.0, 0.0, 0.0, 0.0, 0.0, 0.0, 0.0, 0.0, 0.0, 0.0, 1.708992642652496E9, 0.0, 2024-02-26 19:10:42.652
112.0, 187500.0, 187500.0, 187500.0, 187500.0, -144735.30140343923, 187500.0, 187500.0, -187500.02235174447, 0.064, 0.002, 0.978, 192.0, 0.0, 0.0, 0.0, 0.0, 0.0, 0.0, 0.0, 0.0, 0.0, 1.708992642656504E9, 0.0, 2024-02-26 19:10:42.656
113.0, 187500.0, 187500.0, 187500.0, 187500.0, -144814.24776485536, 187500.0, 187500.0, -187500.02235174447, 0.064, 0.002, 0.978, 192.0, 0.0, 0.0, 0.0, 0.0, 0.0, 0.0, 0.0, 0.0, 0.0, 1.708992642660508E9, 0.0, 2024-02-26 19:10:42.660
114.0, 187500.0, 187500.0, 187500.0, 187500.0, -144819.14279689107, 187500.0, 187500.0, -187500.02235174447, 0.064, 0.002, 0.978, 192.0, 0.0, 0.0, 0.0, 0.0, 0.0, 0.0, 0.0, 0.0, 0.0, 1.70899264266358E9, 0.0, 2024-02-26 19:10:42.663
115.0, 187500.0, 187500.0, 187500.0, 187500.0, -144784.1176133296, 187500.0, 187500.0, -187500.02235174447, 0.064, 0.002, 0.978, 192.0, 0.0, 0.0, 0.0, 0.0, 0.0, 0.0, 0.0, 0.0, 0.0, 1.708992642667545E9, 0.0, 2024-02-26 19:10:42.667
116.0, 187500.0, 187500.0, 187500.0, 187500.0, -144855.06205023077, 187500.0, 187500.0, -187500.02235174447, 0.058, 0.002, 0.974, 192.0, 1.0, 208.0, 0.0, 16.0, 30.0, 112.0, 0.0, 0.0, 0.0, 1.708992642671542E9, 0.0, 2024-02-26 19:10:42.671
117.0, 187500.0, 187500.0, 187500.0, 187500.0, -144952.64976652263, 187500.0, 187500.0, -187500.02235174447, 0.058, 0.002, 0.974, 192.0, 0.0, 0.0, 0.0, 0.0, 0.0, 0.0, 0.0, 0.0, 0.0, 1.708992642675565E9, 0.0, 2024-02-26 19:10:42.675
118.0, 187500.0, 187500.0, 187500.0, 187500.0, -145040.84975014327, 187500.0, 187500.0, -187500.02235174447, 0.058, 0.002, 0.974, 192.0, 0.0, 0.0, 0.0, 0.0, 0.0, 0.0, 0.0, 0.0, 0.0, 1.708992642680556E9, 0.0, 2024-02-26 19:10:42.680
119.0, 187500.0, 187500.0, 187500.0, 187500.0, -145027.9304418481, 187500.0, 187500.0, -187500.02235174447, 0.058, 0.002, 0.974, 192.0, 0.0, 0.0, 0.0, 0.0, 0.0, 0.0, 0.0, 0.0, 0.0, 1.708992642684574E9, 0.0, 2024-02-26 19:10:42.684
120.0, 187500.0, 187500.0, 187500.0, 187500.0, -145081.28405586293, 187500.0, 187500.0, -187500.02235174447, 0.058, 0.002, 0.974, 192.0, 0.0, 0.0, 0.0, 0.0, 0.0, 0.0, 0.0, 0.0, 0.0, 1.708992642688566E9, 0.0, 2024-02-26 19:10:42.688
121.0, 187500.0, 187500.0, 187500.0, 187500.0, -145188.72889145958, 187500.0, 187500.0, -187500.02235174447, 0.058, 0.002, 0.974, 192.0, 0.0, 0.0, 0.0, 0.0, 0.0, 0.0, 0.0, 0.0, 0.0, 1.708992642691547E9, 0.0, 2024-02-26 19:10:42.691
122.0, 187500.0, 187500.0, 187500.0, 187500.0, -145250.3302991784, 187500.0, 187500.0, -187500.02235174447, 0.058, 0.002, 0.974, 192.0, 0.0, 0.0, 0.0, 0.0, 0.0, 0.0, 0.0, 0.0, 0.0, 1.70899264269556E9, 0.0, 2024-02-26 19:10:42.695
123.0, 187500.0, 187500.0, 187500.0, 187500.0, -145229.85610125735, 187500.0, 187500.0, -187500.02235174447, 0.058, 0.002, 0.974, 192.0, 0.0, 0.0, 0.0, 0.0, 0.0, 0.0, 0.0, 0.0, 0.0, 1.708992642699549E9, 0.0, 2024-02-26 19:10:42.699
124.0, 187500.0, 187500.0, 187500.0, 187500.0, -145282.3379972384, 187500.0, 187500.0, -187500.02235174447, 0.058, 0.002, 0.974, 192.0, 0.0, 0.0, 0.0, 0.0, 0.0, 0.0, 0.0, 0.0, 0.0, 1.70899264270356E9, 0.0, 2024-02-26 19:10:42.703
125.0, 187500.0, 187500.0, 187500.0, 187500.0, -145403.59621090844, 187500.0, 187500.0, -187500.02235174447, 0.058, 0.002, 0.974, 192.0, 0.0, 0.0, 0.0, 0.0, 0.0, 0.0, 0.0, 0.0, 0.0, 1.70899264270755E9, 0.0, 2024-02-26 19:10:42.707
126.0, 187500.0, 187500.0, 187500.0, 187500.0, -145516.2490029632, 187500.0, 187500.0, -187500.02235174447, 0.062, 0.0, 0.98, 192.0, 1.0, 240.0, 0.0, 0.0, 30.0, 160.0, 0.0, 0.0, 0.0, 1.708992642712553E9, 0.0, 2024-02-26 19:10:42.712
127.0, 187500.0, 187500.0, 187500.0, 187500.0, -145489.67277880583, 187500.0, 187500.0, -187500.02235174447, 0.062, 0.0, 0.98, 192.0, 0.0, 0.0, 0.0, 0.0, 0.0, 0.0, 0.0, 0.0, 0.0, 1.708992642716565E9, 0.0, 2024-02-26 19:10:42.716
128.0, 187500.0, 187500.0, 187500.0, 187500.0, -145472.99837744219, 187500.0, 187500.0, -187500.02235174447, 0.062, 0.0, 0.98, 192.0, 0.0, 0.0, 0.0, 0.0, 0.0, 0.0, 0.0, 0.0, 0.0, 1.708992642719598E9, 0.0, 2024-02-26 19:10:42.719
129.0, 187500.0, 187500.0, 187500.0, 187500.0, -145545.93211959983, 187500.0, 187500.0, -187500.02235174447, 0.062, 0.0, 0.98, 192.0, 0.0, 0.0, 0.0, 0.0, 0.0, 0.0, 0.0, 0.0, 0.0, 1.70899264272359E9, 0.0, 2024-02-26 19:10:42.723
130.0, 187500.0, 187500.0, 187500.0, 187500.0, -145635.51791137672, 187500.0, 187500.0, -187500.02235174447, 0.062, 0.0, 0.98, 192.0, 0.0, 0.0, 0.0, 0.0, 0.0, 0.0, 0.0, 0.0, 0.0, 1.708992642727594E9, 0.0, 2024-02-26 19:10:42.727
131.0, 187500.0, 187500.0, 187500.0, 187500.0, -145573.15654434642, 187500.0, 187500.0, -187500.02235174447, 0.062, 0.0, 0.98, 192.0, 0.0, 0.0, 0.0, 0.0, 0.0, 0.0, 0.0, 0.0, 0.0, 1.708992642731594E9, 0.0, 2024-02-26 19:10:42.731
132.0, 187500.0, 187500.0, 187500.0, 187500.0, -145541.0594393086, 187500.0, 187500.0, -187500.02235174447, 0.062, 0.0, 0.98, 192.0, 0.0, 0.0, 0.0, 0.0, 0.0, 0.0, 0.0, 0.0, 0.0, 1.708992642736589E9, 0.0, 2024-02-26 19:10:42.736
133.0, 187500.0, 187500.0, 187500.0, 187500.0, -145537.97489857377, 187500.0, 187500.0, -187500.02235174447, 0.062, 0.0, 0.98, 192.0, 0.0, 0.0, 0.0, 0.0, 0.0, 0.0, 0.0, 0.0, 0.0, 1.708992642740588E9, 0.0, 2024-02-26 19:10:42.740
134.0, 187500.0, 187500.0, 187500.0, 187500.0, -145585.606466008, 187500.0, 187500.0, -187500.02235174447, 0.062, 0.0, 0.98, 192.0, 0.0, 0.0, 0.0, 0.0, 0.0, 0.0, 0.0, 0.0, 0.0, 1.708992642743589E9, 0.0, 2024-02-26 19:10:42.743
135.0, 187500.0, 187500.0, 187500.0, 187500.0, -145536.63379390643, 187500.0, 187500.0, -187500.02235174447, 0.062, 0.0, 0.98, 192.0, 0.0, 0.0, 0.0, 0.0, 0.0, 0.0, 0.0, 0.0, 0.0, 1.708992642747602E9, 0.0, 2024-02-26 19:10:42.747
136.0, 187500.0, 187500.0, 187500.0, 187500.0, -145454.28996733308, 187500.0, 187500.0, -187500.02235174447, 0.06, -0.002, 0.98, 192.0, 1.0, 224.0, 255.0, 240.0, 30.0, 160.0, 0.0, 0.0, 0.0, 1.708992642751605E9, 0.0, 2024-02-26 19:10:42.751
137.0, 187500.0, 187500.0, 187500.0, 187500.0, -145439.69427820377, 187500.0, 187500.0, -187500.02235174447, 0.06, -0.002, 0.98, 192.0, 0.0, 0.0, 0.0, 0.0, 0.0, 0.0, 0.0, 0.0, 0.0, 1.708992642755603E9, 0.0, 2024-02-26 19:10:42.755
138.0, 187500.0, 187500.0, 187500.0, 187500.0, -145478.1392786669, 187500.0, 187500.0, -187500.02235174447, 0.06, -0.002, 0.98, 192.0, 0.0, 0.0, 0.0, 0.0, 0.0, 0.0, 0.0, 0.0, 0.0, 1.708992642759588E9, 0.0, 2024-02-26 19:10:42.759
139.0, 187500.0, 187500.0, 187500.0, 187500.0, -145444.49990326166, 187500.0, 187500.0, -187500.02235174447, 0.06, -0.002, 0.98, 192.0, 0.0, 0.0, 0.0, 0.0, 0.0, 0.0, 0.0, 0.0, 0.0, 1.70899264276464E9, 0.0, 2024-02-26 19:10:42.764
140.0, 187500.0, 187500.0, 187500.0, 187500.0, -145391.056882269, 187500.0, 187500.0, -187500.02235174447, 0.06, -0.002, 0.98, 192.0, 0.0, 0.0, 0.0, 0.0, 0.0, 0.0, 0.0, 0.0, 0.0, 1.708992642768593E9, 0.0, 2024-02-26 19:10:42.768
141.0, 187500.0, 187500.0, 187500.0, 187500.0, -145404.5126324311, 187500.0, 187500.0, -187500.02235174447, 0.06, -0.002, 0.98, 192.0, 0.0, 0.0, 0.0, 0.0, 0.0, 0.0, 0.0, 0.0, 0.0, 1.70899264277163E9, 0.0, 2024-02-26 19:10:42.771
142.0, 187500.0, 187500.0, 187500.0, 187500.0, -145412.55926043502, 187500.0, 187500.0, -187500.02235174447, 0.06, -0.002, 0.98, 192.0, 0.0, 0.0, 0.0, 0.0, 0.0, 0.0, 0.0, 0.0, 0.0, 1.708992642775623E9, 0.0, 2024-02-26 19:10:42.775
143.0, 187500.0, 187500.0, 187500.0, 187500.0, -145368.8616000249, 187500.0, 187500.0, -187500.02235174447, 0.06, -0.002, 0.98, 192.0, 0.0, 0.0, 0.0, 0.0, 0.0, 0.0, 0.0, 0.0, 0.0, 1.708992642779631E9, 0.0, 2024-02-26 19:10:42.779
144.0, 187500.0, 187500.0, 187500.0, 187500.0, -145240.45082812916, 187500.0, 187500.0, -187500.02235174447, 0.06, -0.002, 0.98, 192.0, 0.0, 0.0, 0.0, 0.0, 0.0, 0.0, 0.0, 0.0, 0.0, 1.70899264278364E9, 0.0, 2024-02-26 19:10:42.783
145.0, 187500.0, 187500.0, 187500.0, 187500.0, -145193.48981302857, 187500.0, 187500.0, -187500.02235174447, 0.06, -0.002, 0.98, 192.0, 0.0, 0.0, 0.0, 0.0, 0.0, 0.0, 0.0, 0.0, 0.0, 1.708992642787627E9, 0.0, 2024-02-26 19:10:42.787
146.0, 187500.0, 187500.0, 187500.0, 187500.0, -145202.0728828994, 187500.0, 187500.0, -187500.02235174447, 0.058, 0.004, 0.98, 192.0, 1.0, 208.0, 0.0, 32.0, 30.0, 160.0, 0.0, 0.0, 0.0, 1.708992642791624E9, 0.0, 2024-02-26 19:10:42.791
147.0, 187500.0, 187500.0, 187500.0, 187500.0, -145190.4276240382, 187500.0, 187500.0, -187500.02235174447, 0.058, 0.004, 0.98, 192.0, 0.0, 0.0, 0.0, 0.0, 0.0, 0.0, 0.0, 0.0, 0.0, 1.708992642796653E9, 0.0, 2024-02-26 19:10:42.796
148.0, 187500.0, 187500.0, 187500.0, 187500.0, -145077.7971837279, 187500.0, 187500.0, -187500.02235174447, 0.058, 0.004, 0.98, 192.0, 0.0, 0.0, 0.0, 0.0, 0.0, 0.0, 0.0, 0.0, 0.0, 1.70899264279965E9, 0.0, 2024-02-26 19:10:42.799
149.0, 187500.0, 187500.0, 187500.0, 187500.0, -145029.49506395997, 187500.0, 187500.0, -187500.02235174447, 0.058, 0.004, 0.98, 192.0, 0.0, 0.0, 0.0, 0.0, 0.0, 0.0, 0.0, 0.0, 0.0, 1.708992642803691E9, 0.0, 2024-02-26 19:10:42.803
150.0, 187500.0, 187500.0, 187500.0, 187500.0, -145094.02455020245, 187500.0, 187500.0, -187500.02235174447, 0.058, 0.004, 0.98, 192.0, 0.0, 0.0, 0.0, 0.0, 0.0, 0.0, 0.0, 0.0, 0.0, 1.708992642807694E9, 0.0, 2024-02-26 19:10:42.807
151.0, 187500.0, 187500.0, 187500.0, 187500.0, -145183.45387976812, 187500.0, 187500.0, -187500.02235174447, 0.058, 0.004, 0.98, 192.0, 0.0, 0.0, 0.0, 0.0, 0.0, 0.0, 0.0, 0.0, 0.0, 1.708992642812688E9, 0.0, 2024-02-26 19:10:42.812
152.0, 187500.0, 187500.0, 187500.0, 187500.0, -145129.47441690858, 187500.0, 187500.0, -187500.02235174447, 0.058, 0.004, 0.98, 192.0, 0.0, 0.0, 0.0, 0.0, 0.0, 0.0, 0.0, 0.0, 0.0, 1.708992642816679E9, 0.0, 2024-02-26 19:10:42.816
153.0, 187500.0, 187500.0, 187500.0, 187500.0, -145161.14683880174, 187500.0, 187500.0, -187500.02235174447, 0.058, 0.004, 0.98, 192.0, 0.0, 0.0, 0.0, 0.0, 0.0, 0.0, 0.0, 0.0, 0.0, 1.708992642819679E9, 0.0, 2024-02-26 19:10:42.819
154.0, 187500.0, 187500.0, 187500.0, 187500.0, -145261.796744084, 187500.0, 187500.0, -187500.02235174447, 0.058, 0.004, 0.98, 192.0, 0.0, 0.0, 0.0, 0.0, 0.0, 0.0, 0.0, 0.0, 0.0, 1.708992642824678E9, 0.0, 2024-02-26 19:10:42.824
155.0, 187500.0, 187500.0, 187500.0, 187500.0, -145349.0579544375, 187500.0, 187500.0, -187500.02235174447, 0.058, 0.004, 0.98, 192.0, 0.0, 0.0, 0.0, 0.0, 0.0, 0.0, 0.0, 0.0, 0.0, 1.708992642827675E9, 0.0, 2024-02-26 19:10:42.827
156.0, 187500.0, 187500.0, 187500.0, 187500.0, -145306.38847427233, 187500.0, 187500.0, -187500.02235174447, 0.064, 0.002, 0.978, 192.0, 2.0, 0.0, 0.0, 16.0, 30.0, 144.0, 0.0, 0.0, 0.0, 1.708992642831682E9, 0.0, 2024-02-26 19:10:42.831
157.0, 187500.0, 187500.0, 187500.0, 187500.0, -145251.9396247792, 187500.0, 187500.0, -187500.02235174447, 0.064, 0.002, 0.978, 192.0, 0.0, 0.0, 0.0, 0.0, 0.0, 0.0, 0.0, 0.0, 0.0, 1.70899264283568E9, 0.0, 2024-02-26 19:10:42.835
158.0, 187500.0, 187500.0, 187500.0, 187500.0, -145300.33115152494, 187500.0, 187500.0, -187500.02235174447, 0.064, 0.002, 0.978, 192.0, 0.0, 0.0, 0.0, 0.0, 0.0, 0.0, 0.0, 0.0, 0.0, 1.708992642839725E9, 0.0, 2024-02-26 19:10:42.839
159.0, 187500.0, 187500.0, 187500.0, 187500.0, -145415.2861732586, 187500.0, 187500.0, -187500.02235174447, 0.064, 0.002, 0.978, 192.0, 0.0, 0.0, 0.0, 0.0, 0.0, 0.0, 0.0, 0.0, 0.0, 1.708992642843728E9, 0.0, 2024-02-26 19:10:42.843
160.0, 187500.0, 187500.0, 187500.0, 187500.0, -145441.08008636, 187500.0, 187500.0, -187500.02235174447, 0.064, 0.002, 0.978, 192.0, 0.0, 0.0, 0.0, 0.0, 0.0, 0.0, 0.0, 0.0, 0.0, 1.708992642847722E9, 0.0, 2024-02-26 19:10:42.847
161.0, 187500.0, 187500.0, 187500.0, 187500.0, -145415.15206279184, 187500.0, 187500.0, -187500.02235174447, 0.064, 0.002, 0.978, 192.0, 0.0, 0.0, 0.0, 0.0, 0.0, 0.0, 0.0, 0.0, 0.0, 1.708992642852713E9, 0.0, 2024-02-26 19:10:42.852
162.0, 187500.0, 187500.0, 187500.0, 187500.0, -145475.2335518877, 187500.0, 187500.0, -187500.02235174447, 0.064, 0.002, 0.978, 192.0, 0.0, 0.0, 0.0, 0.0, 0.0, 0.0, 0.0, 0.0, 0.0, 1.708992642855718E9, 0.0, 2024-02-26 19:10:42.855
163.0, 187500.0, 187500.0, 187500.0, 187500.0, -145563.36648027497, 187500.0, 187500.0, -187500.02235174447, 0.064, 0.002, 0.978, 192.0, 0.0, 0.0, 0.0, 0.0, 0.0, 0.0, 0.0, 0.0, 0.0, 1.708992642859723E9, 0.0, 2024-02-26 19:10:42.859
164.0, 187500.0, 187500.0, 187500.0, 187500.0, -145570.25081756723, 187500.0, 187500.0, -187500.02235174447, 0.064, 0.002, 0.978, 192.0, 0.0, 0.0, 0.0, 0.0, 0.0, 0.0, 0.0, 0.0, 0.0, 1.708992642863731E9, 0.0, 2024-02-26 19:10:42.863
165.0, 187500.0, 187500.0, 187500.0, 187500.0, -145510.37049417145, 187500.0, 187500.0, -187500.02235174447, 0.064, 0.002, 0.978, 192.0, 0.0, 0.0, 0.0, 0.0, 0.0, 0.0, 0.0, 0.0, 0.0, 1.708992642868719E9, 0.0, 2024-02-26 19:10:42.868
166.0, 187500.0, 187500.0, 187500.0, 187500.0, -145551.87768362495, 187500.0, 187500.0, -187500.02235174447, 0.06, 0.0, 0.976, 192.0, 1.0, 224.0, 0.0, 0.0, 30.0, 128.0, 0.0, 0.0, 0.0, 1.708992642872712E9, 0.0, 2024-02-26 19:10:42.872
167.0, 187500.0, 187500.0, 187500.0, 187500.0, -145620.4751873583, 187500.0, 187500.0, -187500.02235174447, 0.06, 0.0, 0.976, 192.0, 0.0, 0.0, 0.0, 0.0, 0.0, 0.0, 0.0, 0.0, 0.0, 1.708992642875719E9, 0.0, 2024-02-26 19:10:42.875
168.0, 187500.0, 187500.0, 187500.0, 187500.0, -145624.49850136024, 187500.0, 187500.0, -187500.02235174447, 0.06, 0.0, 0.976, 192.0, 0.0, 0.0, 0.0, 0.0, 0.0, 0.0, 0.0, 0.0, 0.0, 1.708992642879762E9, 0.0, 2024-02-26 19:10:42.879
169.0, 187500.0, 187500.0, 187500.0, 187500.0, -145538.6007474185, 187500.0, 187500.0, -187500.02235174447, 0.06, 0.0, 0.976, 192.0, 0.0, 0.0, 0.0, 0.0, 0.0, 0.0, 0.0, 0.0, 0.0, 1.708992642882761E9, 0.0, 2024-02-26 19:10:42.882
170.0, 187500.0, 187500.0, 187500.0, 187500.0, -145539.4948171967, 187500.0, 187500.0, -187500.02235174447, 0.06, 0.0, 0.976, 192.0, 0.0, 0.0, 0.0, 0.0, 0.0, 0.0, 0.0, 0.0, 0.0, 1.70899264288676E9, 0.0, 2024-02-26 19:10:42.886
171.0, 187500.0, 187500.0, 187500.0, 187500.0, -145595.15066089042, 187500.0, 187500.0, -187500.02235174447, 0.06, 0.0, 0.976, 192.0, 0.0, 0.0, 0.0, 0.0, 0.0, 0.0, 0.0, 0.0, 0.0, 1.708992642891763E9, 0.0, 2024-02-26 19:10:42.891
172.0, 187500.0, 187500.0, 187500.0, 187500.0, -145622.3303821481, 187500.0, 187500.0, -187500.02235174447, 0.06, 0.0, 0.976, 192.0, 0.0, 0.0, 0.0, 0.0, 0.0, 0.0, 0.0, 0.0, 0.0, 1.708992642895751E9, 0.0, 2024-02-26 19:10:42.895
173.0, 187500.0, 187500.0, 187500.0, 187500.0, -145550.08954406853, 187500.0, 187500.0, -187500.02235174447, 0.06, 0.0, 0.976, 192.0, 0.0, 0.0, 0.0, 0.0, 0.0, 0.0, 0.0, 0.0, 0.0, 1.708992642899756E9, 0.0, 2024-02-26 19:10:42.899
174.0, 187500.0, 187500.0, 187500.0, 187500.0, -145560.19253256233, 187500.0, 187500.0, -187500.02235174447, 0.06, 0.0, 0.976, 192.0, 0.0, 0.0, 0.0, 0.0, 0.0, 0.0, 0.0, 0.0, 0.0, 1.70899264290376E9, 0.0, 2024-02-26 19:10:42.903
175.0, 187500.0, 187500.0, 187500.0, 187500.0, -145624.99023973825, 187500.0, 187500.0, -187500.02235174447, 0.06, 0.0, 0.976, 192.0, 0.0, 0.0, 0.0, 0.0, 0.0, 0.0, 0.0, 0.0, 0.0, 1.708992642907767E9, 0.0, 2024-02-26 19:10:42.907
176.0, 187500.0, 187500.0, 187500.0, 187500.0, -145655.79094359768, 187500.0, 187500.0, -187500.02235174447, 0.06, -0.006, 0.974, 192.0, 1.0, 224.0, 255.0, 208.0, 30.0, 112.0, 0.0, 0.0, 0.0, 1.708992642910758E9, 0.0, 2024-02-26 19:10:42.910
177.0, 187500.0, 187500.0, 187500.0, 187500.0, -145616.85420475653, 187500.0, 187500.0, -187500.02235174447, 0.06, -0.006, 0.974, 192.0, 0.0, 0.0, 0.0, 0.0, 0.0, 0.0, 0.0, 0.0, 0.0, 1.708992642914753E9, 0.0, 2024-02-26 19:10:42.914
178.0, 187500.0, 187500.0, 187500.0, 187500.0, -145592.9601899338, 187500.0, 187500.0, -187500.02235174447, 0.06, -0.006, 0.974, 192.0, 0.0, 0.0, 0.0, 0.0, 0.0, 0.0, 0.0, 0.0, 0.0, 1.708992642918865E9, 0.0, 2024-02-26 19:10:42.918
179.0, 187500.0, 187500.0, 187500.0, 187500.0, -145646.91730104893, 187500.0, 187500.0, -187500.02235174447, 0.06, -0.006, 0.974, 192.0, 0.0, 0.0, 0.0, 0.0, 0.0, 0.0, 0.0, 0.0, 0.0, 1.708992642923866E9, 0.0, 2024-02-26 19:10:42.923
180.0, 187500.0, 187500.0, 187500.0, 187500.0, -145712.9443541699, 187500.0, 187500.0, -187500.02235174447, 0.06, -0.006, 0.974, 192.0, 0.0, 0.0, 0.0, 0.0, 0.0, 0.0, 0.0, 0.0, 0.0, 1.708992642927878E9, 0.0, 2024-02-26 19:10:42.927
181.0, 187500.0, 187500.0, 187500.0, 187500.0, -145612.65207679893, 187500.0, 187500.0, -187500.02235174447, 0.06, -0.006, 0.974, 192.0, 0.0, 0.0, 0.0, 0.0, 0.0, 0.0, 0.0, 0.0, 0.0, 1.708992642931877E9, 0.0, 2024-02-26 19:10:42.931
182.0, 187500.0, 187500.0, 187500.0, 187500.0, -145546.5132649557, 187500.0, 187500.0, -187500.02235174447, 0.06, -0.006, 0.974, 192.0, 0.0, 0.0, 0.0, 0.0, 0.0, 0.0, 0.0, 0.0, 0.0, 1.708992642934867E9, 0.0, 2024-02-26 19:10:42.934
183.0, 187500.0, 187500.0, 187500.0, 187500.0, -145592.69196900036, 187500.0, 187500.0, -187500.02235174447, 0.06, -0.006, 0.974, 192.0, 0.0, 0.0, 0.0, 0.0, 0.0, 0.0, 0.0, 0.0, 0.0, 1.708992642938874E9, 0.0, 2024-02-26 19:10:42.938
184.0, 187500.0, 187500.0, 187500.0, 187500.0, -145636.34492592156, 187500.0, 187500.0, -187500.02235174447, 0.06, -0.006, 0.974, 192.0, 0.0, 0.0, 0.0, 0.0, 0.0, 0.0, 0.0, 0.0, 0.0, 1.708992642942868E9, 0.0, 2024-02-26 19:10:42.942
185.0, 187500.0, 187500.0, 187500.0, 187500.0, -145605.03013193968, 187500.0, 187500.0, -187500.02235174447, 0.062, -0.004, 0.978, 192.0, 1.0, 240.0, 255.0, 224.0, 30.0, 144.0, 0.0, 0.0, 0.0, 1.708992642947874E9, 0.0, 2024-02-26 19:10:42.947
186.0, 187500.0, 187500.0, 187500.0, 187500.0, -145545.82036087758, 187500.0, 187500.0, -187500.02235174447, 0.062, -0.004, 0.978, 192.0, 0.0, 0.0, 0.0, 0.0, 0.0, 0.0, 0.0, 0.0, 0.0, 1.708992642951866E9, 0.0, 2024-02-26 19:10:42.951
187.0, 187500.0, 187500.0, 187500.0, 187500.0, -145563.94762563083, 187500.0, 187500.0, -187500.02235174447, 0.062, -0.004, 0.978, 192.0, 0.0, 0.0, 0.0, 0.0, 0.0, 0.0, 0.0, 0.0, 0.0, 1.708992642955862E9, 0.0, 2024-02-26 19:10:42.955
188.0, 187500.0, 187500.0, 187500.0, 187500.0, -145614.26140239972, 187500.0, 187500.0, -187500.02235174447, 0.062, -0.004, 0.978, 192.0, 0.0, 0.0, 0.0, 0.0, 0.0, 0.0, 0.0, 0.0, 0.0, 1.708992642960889E9, 0.0, 2024-02-26 19:10:42.960
189.0, 187500.0, 187500.0, 187500.0, 187500.0, -145602.50438481622, 187500.0, 187500.0, -187500.02235174447, 0.062, -0.004, 0.978, 192.0, 0.0, 0.0, 0.0, 0.0, 0.0, 0.0, 0.0, 0.0, 0.0, 1.708992642962866E9, 0.0, 2024-02-26 19:10:42.962
190.0, 187500.0, 187500.0, 187500.0, 187500.0, -145498.07703472103, 187500.0, 187500.0, -187500.02235174447, 0.062, -0.004, 0.978, 192.0, 0.0, 0.0, 0.0, 0.0, 0.0, 0.0, 0.0, 0.0, 0.0, 1.708992642966863E9, 0.0, 2024-02-26 19:10:42.966
191.0, 187500.0, 187500.0, 187500.0, 187500.0, -145504.64844759088, 187500.0, 187500.0, -187500.02235174447, 0.062, -0.004, 0.978, 192.0, 0.0, 0.0, 0.0, 0.0, 0.0, 0.0, 0.0, 0.0, 0.0, 1.708992642970862E9, 0.0, 2024-02-26 19:10:42.970
192.0, 187500.0, 187500.0, 187500.0, 187500.0, -145562.47241049676, 187500.0, 187500.0, -187500.02235174447, 0.062, -0.004, 0.978, 192.0, 0.0, 0.0, 0.0, 0.0, 0.0, 0.0, 0.0, 0.0, 0.0, 1.708992642975864E9, 0.0, 2024-02-26 19:10:42.975
193.0, 187500.0, 187500.0, 187500.0, 187500.0, -145568.99911987773, 187500.0, 187500.0, -187500.02235174447, 0.062, -0.004, 0.978, 192.0, 0.0, 0.0, 0.0, 0.0, 0.0, 0.0, 0.0, 0.0, 0.0, 1.708992642979863E9, 0.0, 2024-02-26 19:10:42.979
194.0, 187500.0, 187500.0, 187500.0, 187500.0, -145479.97212171223, 187500.0, 187500.0, -187500.02235174447, 0.062, -0.004, 0.978, 192.0, 0.0, 0.0, 0.0, 0.0, 0.0, 0.0, 0.0, 0.0, 0.0, 1.708992642984861E9, 0.0, 2024-02-26 19:10:42.984
195.0, 187500.0, 187500.0, 187500.0, 187500.0, -145467.2316273727, 187500.0, 187500.0, -187500.02235174447, 0.062, -0.008, 0.978, 192.0, 1.0, 240.0, 255.0, 192.0, 30.0, 144.0, 0.0, 0.0, 0.0, 1.708992642988866E9, 0.0, 2024-02-26 19:10:42.988
196.0, 187500.0, 187500.0, 187500.0, 187500.0, -145540.344183486, 187500.0, 187500.0, -187500.02235174447, 0.062, -0.008, 0.978, 192.0, 0.0, 0.0, 0.0, 0.0, 0.0, 0.0, 0.0, 0.0, 0.0, 1.708992642991863E9, 0.0, 2024-02-26 19:10:42.991
197.0, 187500.0, 187500.0, 187500.0, 187500.0, -145599.24103012576, 187500.0, 187500.0, -187500.02235174447, 0.062, -0.008, 0.978, 192.0, 0.0, 0.0, 0.0, 0.0, 0.0, 0.0, 0.0, 0.0, 0.0, 1.708992642994866E9, 0.0, 2024-02-26 19:10:42.994
198.0, 187500.0, 187500.0, 187500.0, 187500.0, -145483.72721478072, 187500.0, 187500.0, -187500.02235174447, 0.062, -0.008, 0.978, 192.0, 0.0, 0.0, 0.0, 0.0, 0.0, 0.0, 0.0, 0.0, 0.0, 1.708992642998863E9, 0.0, 2024-02-26 19:10:42.998
199.0, 187500.0, 187500.0, 187500.0, 187500.0, -145479.9497699678, 187500.0, 187500.0, -187500.02235174447, 0.062, -0.008, 0.978, 192.0, 0.0, 0.0, 0.0, 0.0, 0.0, 0.0, 0.0, 0.0, 0.0, 1.708992643002877E9, 0.0, 2024-02-26 19:10:43.002
200.0, 187500.0, 187500.0, 187500.0, 187500.0, -145614.75314077773, 187500.0, 187500.0, -187500.02235174447, 0.062, -0.008, 0.978, 192.0, 0.0, 0.0, 0.0, 0.0, 0.0, 0.0, 0.0, 0.0, 0.0, 1.708992643007881E9, 0.0, 2024-02-26 19:10:43.007
201.0, 187500.0, 187500.0, 187500.0, 187500.0, -145690.30203703666, 187500.0, 187500.0, -187500.02235174447, 0.062, -0.008, 0.978, 192.0, 0.0, 0.0, 0.0, 0.0, 0.0, 0.0, 0.0, 0.0, 0.0, 1.708992643011905E9, 0.0, 2024-02-26 19:10:43.011
202.0, 187500.0, 187500.0, 187500.0, 187500.0, -145643.92216729192, 187500.0, 187500.0, -187500.02235174447, 0.062, -0.008, 0.978, 192.0, 0.0, 0.0, 0.0, 0.0, 0.0, 0.0, 0.0, 0.0, 0.0, 1.708992643014897E9, 0.0, 2024-02-26 19:10:43.014
203.0, 187500.0, 187500.0, 187500.0, 187500.0, -145651.09707726206, 187500.0, 187500.0, -187500.02235174447, 0.062, -0.008, 0.978, 192.0, 0.0, 0.0, 0.0, 0.0, 0.0, 0.0, 0.0, 0.0, 0.0, 1.708992643018906E9, 0.0, 2024-02-26 19:10:43.018
204.0, 187500.0, 187500.0, 187500.0, 187500.0, -145734.893767225, 187500.0, 187500.0, -187500.02235174447, 0.062, -0.008, 0.978, 192.0, 0.0, 0.0, 0.0, 0.0, 0.0, 0.0, 0.0, 0.0, 0.0, 1.708992643022896E9, 0.0, 2024-02-26 19:10:43.022
205.0, 187500.0, 187500.0, 187500.0, 187500.0, -145824.50191074633, 187500.0, 187500.0, -187500.02235174447, 0.068, -0.006, 0.98, 192.0, 2.0, 32.0, 255.0, 208.0, 30.0, 160.0, 0.0, 0.0, 0.0, 1.708992643026904E9, 0.0, 2024-02-26 19:10:43.026
206.0, 187500.0, 187500.0, 187500.0, 187500.0, -145841.73510572137, 187500.0, 187500.0, -187500.02235174447, 0.068, -0.006, 0.98, 192.0, 0.0, 0.0, 0.0, 0.0, 0.0, 0.0, 0.0, 0.0, 0.0, 1.708992643030925E9, 0.0, 2024-02-26 19:10:43.030
207.0, 187500.0, 187500.0, 187500.0, 187500.0, -145845.06551564523, 187500.0, 187500.0, -187500.02235174447, 0.068, -0.006, 0.98, 192.0, 0.0, 0.0, 0.0, 0.0, 0.0, 0.0, 0.0, 0.0, 0.0, 1.708992643035926E9, 0.0, 2024-02-26 19:10:43.035
208.0, 187500.0, 187500.0, 187500.0, 187500.0, -145953.27031055337, 187500.0, 187500.0, -187500.02235174447, 0.068, -0.006, 0.98, 192.0, 0.0, 0.0, 0.0, 0.0, 0.0, 0.0, 0.0, 0.0, 0.0, 1.708992643039924E9, 0.0, 2024-02-26 19:10:43.039
209.0, 187500.0, 187500.0, 187500.0, 187500.0, -146062.54798919536, 187500.0, 187500.0, -187500.02235174447, 0.068, -0.006, 0.98, 192.0, 0.0, 0.0, 0.0, 0.0, 0.0, 0.0, 0.0, 0.0, 0.0, 1.708992643042918E9, 0.0, 2024-02-26 19:10:43.042
210.0, 187500.0, 187500.0, 187500.0, 187500.0, -146085.99496912898, 187500.0, 187500.0, -187500.02235174447, 0.068, -0.006, 0.98, 192.0, 0.0, 0.0, 0.0, 0.0, 0.0, 0.0, 0.0, 0.0, 0.0, 1.70899264304693E9, 0.0, 2024-02-26 19:10:43.046
211.0, 187500.0, 187500.0, 187500.0, 187500.0, -146055.21661701403, 187500.0, 187500.0, -187500.02235174447, 0.068, -0.006, 0.98, 192.0, 0.0, 0.0, 0.0, 0.0, 0.0, 0.0, 0.0, 0.0, 0.0, 1.708992643050928E9, 0.0, 2024-02-26 19:10:43.050
212.0, 187500.0, 187500.0, 187500.0, 187500.0, -146122.11538816875, 187500.0, 187500.0, -187500.02235174447, 0.068, -0.006, 0.98, 192.0, 0.0, 0.0, 0.0, 0.0, 0.0, 0.0, 0.0, 0.0, 0.0, 1.708992643054927E9, 0.0, 2024-02-26 19:10:43.054
213.0, 187500.0, 187500.0, 187500.0, 187500.0, -146258.21516015712, 187500.0, 187500.0, -187500.02235174447, 0.068, -0.006, 0.98, 192.0, 0.0, 0.0, 0.0, 0.0, 0.0, 0.0, 0.0, 0.0, 0.0, 1.708992643058926E9, 0.0, 2024-02-26 19:10:43.058
214.0, 187500.0, 187500.0, 187500.0, 187500.0, -146300.97404730011, 187500.0, 187500.0, -187500.02235174447, 0.068, -0.006, 0.98, 192.0, 0.0, 0.0, 0.0, 0.0, 0.0, 0.0, 0.0, 0.0, 0.0, 1.708992643063939E9, 0.0, 2024-02-26 19:10:43.063
215.0, 187500.0, 187500.0, 187500.0, 187500.0, -146202.9616478636, 187500.0, 187500.0, -187500.02235174447, 0.066, 0.002, 0.978, 192.0, 2.0, 16.0, 0.0, 16.0, 30.0, 144.0, 0.0, 0.0, 0.0, 1.708992643067992E9, 0.0, 2024-02-26 19:10:43.067
216.0, 187500.0, 187500.0, 187500.0, 187500.0, -146234.87993894579, 187500.0, 187500.0, -187500.02235174447, 0.066, 0.002, 0.978, 192.0, 0.0, 0.0, 0.0, 0.0, 0.0, 0.0, 0.0, 0.0, 0.0, 1.708992643070943E9, 0.0, 2024-02-26 19:10:43.070
217.0, 187500.0, 187500.0, 187500.0, 187500.0, -146341.5871669754, 187500.0, 187500.0, -187500.02235174447, 0.066, 0.002, 0.978, 192.0, 0.0, 0.0, 0.0, 0.0, 0.0, 0.0, 0.0, 0.0, 0.0, 1.708992643074981E9, 0.0, 2024-02-26 19:10:43.074
218.0, 187500.0, 187500.0, 187500.0, 187500.0, -146392.10210944441, 187500.0, 187500.0, -187500.02235174447, 0.066, 0.002, 0.978, 192.0, 0.0, 0.0, 0.0, 0.0, 0.0, 0.0, 0.0, 0.0, 0.0, 1.70899264307896E9, 0.0, 2024-02-26 19:10:43.078
219.0, 187500.0, 187500.0, 187500.0, 187500.0, -146351.95837640268, 187500.0, 187500.0, -187500.02235174447, 0.066, 0.002, 0.978, 192.0, 0.0, 0.0, 0.0, 0.0, 0.0, 0.0, 0.0, 0.0, 0.0, 1.708992643083033E9, 0.0, 2024-02-26 19:10:43.083
220.0, 187500.0, 187500.0, 187500.0, 187500.0, -146387.07296694195, 187500.0, 187500.0, -187500.02235174447, 0.066, 0.002, 0.978, 192.0, 0.0, 0.0, 0.0, 0.0, 0.0, 0.0, 0.0, 0.0, 0.0, 1.708992643086987E9, 0.0, 2024-02-26 19:10:43.086
221.0, 187500.0, 187500.0, 187500.0, 187500.0, -146485.80062220106, 187500.0, 187500.0, -187500.02235174447, 0.066, 0.002, 0.978, 192.0, 0.0, 0.0, 0.0, 0.0, 0.0, 0.0, 0.0, 0.0, 0.0, 1.708992643091968E9, 0.0, 2024-02-26 19:10:43.091
222.0, 187500.0, 187500.0, 187500.0, 187500.0, -146532.64987857937, 187500.0, 187500.0, -187500.02235174447, 0.066, 0.002, 0.978, 192.0, 0.0, 0.0, 0.0, 0.0, 0.0, 0.0, 0.0, 0.0, 0.0, 1.708992643095958E9, 0.0, 2024-02-26 19:10:43.095
223.0, 187500.0, 187500.0, 187500.0, 187500.0, -146461.1689998113, 187500.0, 187500.0, -187500.02235174447, 0.066, 0.002, 0.978, 192.0, 0.0, 0.0, 0.0, 0.0, 0.0, 0.0, 0.0, 0.0, 0.0, 1.708992643099002E9, 0.0, 2024-02-26 19:10:43.099
224.0, 187500.0, 187500.0, 187500.0, 187500.0, -146435.59860415442, 187500.0, 187500.0, -187500.02235174447, 0.066, 0.002, 0.978, 192.0, 0.0, 0.0, 0.0, 0.0, 0.0, 0.0, 0.0, 0.0, 0.0, 1.708992643102993E9, 0.0, 2024-02-26 19:10:43.102
225.0, 187500.0, 187500.0, 187500.0, 187500.0, -146476.21172382974, 187500.0, 187500.0, -187500.02235174447, 0.066, 0.004, 0.984, 192.0, 2.0, 16.0, 0.0, 32.0, 30.0, 192.0, 0.0, 0.0, 0.0, 1.70899264310699E9, 0.0, 2024-02-26 19:10:43.106
226.0, 187500.0, 187500.0, 187500.0, 187500.0, -146515.95312547125, 187500.0, 187500.0, -187500.02235174447, 0.066, 0.004, 0.984, 192.0, 0.0, 0.0, 0.0, 0.0, 0.0, 0.0, 0.0, 0.0, 0.0, 1.708992643110985E9, 0.0, 2024-02-26 19:10:43.110
227.0, 187500.0, 187500.0, 187500.0, 187500.0, -146441.74533387963, 187500.0, 187500.0, -187500.02235174447, 0.066, 0.004, 0.984, 192.0, 0.0, 0.0, 0.0, 0.0, 0.0, 0.0, 0.0, 0.0, 0.0, 1.708992643114979E9, 0.0, 2024-02-26 19:10:43.114
228.0, 187500.0, 187500.0, 187500.0, 187500.0, -146347.15275134478, 187500.0, 187500.0, -187500.02235174447, 0.066, 0.004, 0.984, 192.0, 0.0, 0.0, 0.0, 0.0, 0.0, 0.0, 0.0, 0.0, 0.0, 1.708992643120006E9, 0.0, 2024-02-26 19:10:43.120
229.0, 187500.0, 187500.0, 187500.0, 187500.0, -146351.51134151357, 187500.0, 187500.0, -187500.02235174447, 0.066, 0.004, 0.984, 192.0, 0.0, 0.0, 0.0, 0.0, 0.0, 0.0, 0.0, 0.0, 0.0, 1.708992643124035E9, 0.0, 2024-02-26 19:10:43.124
230.0, 187500.0, 187500.0, 187500.0, 187500.0, -146401.33337990445, 187500.0, 187500.0, -187500.02235174447, 0.066, 0.004, 0.984, 192.0, 0.0, 0.0, 0.0, 0.0, 0.0, 0.0, 0.0, 0.0, 0.0, 1.708992643127055E9, 0.0, 2024-02-26 19:10:43.127
231.0, 187500.0, 187500.0, 187500.0, 187500.0, -146331.86415813735, 187500.0, 187500.0, -187500.02235174447, 0.066, 0.004, 0.984, 192.0, 0.0, 0.0, 0.0, 0.0, 0.0, 0.0, 0.0, 0.0, 0.0, 1.708992643131051E9, 0.0, 2024-02-26 19:10:43.131
232.0, 187500.0, 187500.0, 187500.0, 187500.0, -146212.97522937958, 187500.0, 187500.0, -187500.02235174447, 0.066, 0.004, 0.984, 192.0, 0.0, 0.0, 0.0, 0.0, 0.0, 0.0, 0.0, 0.0, 0.0, 1.708992643135053E9, 0.0, 2024-02-26 19:10:43.135
233.0, 187500.0, 187500.0, 187500.0, 187500.0, -146185.21436276607, 187500.0, 187500.0, -187500.02235174447, 0.066, 0.004, 0.984, 192.0, 0.0, 0.0, 0.0, 0.0, 0.0, 0.0, 0.0, 0.0, 0.0, 1.708992643139031E9, 0.0, 2024-02-26 19:10:43.139
234.0, 187500.0, 187500.0, 187500.0, 187500.0, -146186.30959824438, 187500.0, 187500.0, -187500.02235174447, 0.066, 0.004, 0.984, 192.0, 0.0, 0.0, 0.0, 0.0, 0.0, 0.0, 0.0, 0.0, 0.0, 1.708992643143022E9, 0.0, 2024-02-26 19:10:43.143
235.0, 187500.0, 187500.0, 187500.0, 187500.0, -146119.16495790065, 187500.0, 187500.0, -187500.02235174447, 0.062, 0.002, 0.986, 192.0, 1.0, 240.0, 0.0, 16.0, 30.0, 208.0, 0.0, 0.0, 0.0, 1.708992643148065E9, 0.0, 2024-02-26 19:10:43.148
236.0, 187500.0, 187500.0, 187500.0, 187500.0, -145989.94952320453, 187500.0, 187500.0, -187500.02235174447, 0.062, 0.002, 0.986, 192.0, 0.0, 0.0, 0.0, 0.0, 0.0, 0.0, 0.0, 0.0, 0.0, 1.708992643151028E9, 0.0, 2024-02-26 19:10:43.151
237.0, 187500.0, 187500.0, 187500.0, 187500.0, -145960.42286877905, 187500.0, 187500.0, -187500.02235174447, 0.062, 0.002, 0.986, 192.0, 0.0, 0.0, 0.0, 0.0, 0.0, 0.0, 0.0, 0.0, 0.0, 1.708992643154104E9, 0.0, 2024-02-26 19:10:43.154
238.0, 187500.0, 187500.0, 187500.0, 187500.0, -146003.8523082557, 187500.0, 187500.0, -187500.02235174447, 0.062, 0.002, 0.986, 192.0, 0.0, 0.0, 0.0, 0.0, 0.0, 0.0, 0.0, 0.0, 0.0, 1.708992643159043E9, 0.0, 2024-02-26 19:10:43.159
239.0, 187500.0, 187500.0, 187500.0, 187500.0, -145962.72509845794, 187500.0, 187500.0, -187500.02235174447, 0.062, 0.002, 0.986, 192.0, 0.0, 0.0, 0.0, 0.0, 0.0, 0.0, 0.0, 0.0, 0.0, 1.708992643163036E9, 0.0, 2024-02-26 19:10:43.163
240.0, 187500.0, 187500.0, 187500.0, 187500.0, -145848.39592556906, 187500.0, 187500.0, -187500.02235174447, 0.062, 0.002, 0.986, 192.0, 0.0, 0.0, 0.0, 0.0, 0.0, 0.0, 0.0, 0.0, 0.0, 1.708992643167037E9, 0.0, 2024-02-26 19:10:43.167
241.0, 187500.0, 187500.0, 187500.0, 187500.0, -145832.99557363935, 187500.0, 187500.0, -187500.02235174447, 0.062, 0.002, 0.986, 192.0, 0.0, 0.0, 0.0, 0.0, 0.0, 0.0, 0.0, 0.0, 0.0, 1.708992643171075E9, 0.0, 2024-02-26 19:10:43.171
242.0, 187500.0, 187500.0, 187500.0, 187500.0, -145880.5377340958, 187500.0, 187500.0, -187500.02235174447, 0.062, 0.002, 0.986, 192.0, 0.0, 0.0, 0.0, 0.0, 0.0, 0.0, 0.0, 0.0, 0.0, 1.708992643176077E9, 0.0, 2024-02-26 19:10:43.176
243.0, 187500.0, 187500.0, 187500.0, 187500.0, -145887.2432574324, 187500.0, 187500.0, -187500.02235174447, 0.062, 0.002, 0.986, 192.0, 0.0, 0.0, 0.0, 0.0, 0.0, 0.0, 0.0, 0.0, 0.0, 1.708992643179061E9, 0.0, 2024-02-26 19:10:43.179
244.0, 187500.0, 187500.0, 187500.0, 187500.0, -145786.14631726104, 187500.0, 187500.0, -187500.02235174447, 0.062, 0.002, 0.986, 192.0, 0.0, 0.0, 0.0, 0.0, 0.0, 0.0, 0.0, 0.0, 0.0, 1.708992643182055E9, 0.0, 2024-02-26 19:10:43.182
245.0, 187500.0, 187500.0, 187500.0, 187500.0, -145771.77414557626, 187500.0, 187500.0, -187500.02235174447, 0.06, 0.0, 0.984, 192.0, 1.0, 224.0, 0.0, 0.0, 30.0, 192.0, 0.0, 0.0, 0.0, 1.708992643187069E9, 0.0, 2024-02-26 19:10:43.187
246.0, 187500.0, 187500.0, 187500.0, 187500.0, -145830.3804195381, 187500.0, 187500.0, -187500.02235174447, 0.06, 0.0, 0.984, 192.0, 0.0, 0.0, 0.0, 0.0, 0.0, 0.0, 0.0, 0.0, 0.0, 1.708992643191079E9, 0.0, 2024-02-26 19:10:43.191
247.0, 187500.0, 187500.0, 187500.0, 187500.0, -145872.15582992506, 187500.0, 187500.0, -187500.02235174447, 0.06, 0.0, 0.984, 192.0, 0.0, 0.0, 0.0, 0.0, 0.0, 0.0, 0.0, 0.0, 0.0, 1.708992643195121E9, 0.0, 2024-02-26 19:10:43.195
248.0, 187500.0, 187500.0, 187500.0, 187500.0, -145809.414483239, 187500.0, 187500.0, -187500.02235174447, 0.06, 0.0, 0.984, 192.0, 0.0, 0.0, 0.0, 0.0, 0.0, 0.0, 0.0, 0.0, 0.0, 1.708992643199102E9, 0.0, 2024-02-26 19:10:43.199
249.0, 187500.0, 187500.0, 187500.0, 187500.0, -145811.7167129179, 187500.0, 187500.0, -187500.02235174447, 0.06, 0.0, 0.984, 192.0, 0.0, 0.0, 0.0, 0.0, 0.0, 0.0, 0.0, 0.0, 0.0, 1.708992643203132E9, 0.0, 2024-02-26 19:10:43.203
250.0, 187500.0, 187500.0, 187500.0, 187500.0, -145855.03439367228, 187500.0, 187500.0, -187500.02235174447, 0.06, 0.0, 0.984, 192.0, 0.0, 0.0, 0.0, 0.0, 0.0, 0.0, 0.0, 0.0, 0.0, 1.708992643207113E9, 0.0, 2024-02-26 19:10:43.207
251.0, 187500.0, 187500.0, 187500.0, 187500.0, -145923.72130438345, 187500.0, 187500.0, -187500.02235174447, 0.06, 0.0, 0.984, 192.0, 0.0, 0.0, 0.0, 0.0, 0.0, 0.0, 0.0, 0.0, 0.0, 1.708992643211129E9, 0.0, 2024-02-26 19:10:43.211
252.0, 187500.0, 187500.0, 187500.0, 187500.0, -145899.447309905, 187500.0, 187500.0, -187500.02235174447, 0.06, 0.0, 0.984, 192.0, 0.0, 0.0, 0.0, 0.0, 0.0, 0.0, 0.0, 0.0, 0.0, 1.708992643215128E9, 0.0, 2024-02-26 19:10:43.215
253.0, 187500.0, 187500.0, 187500.0, 187500.0, -145851.68163200398, 187500.0, 187500.0, -187500.02235174447, 0.06, 0.0, 0.984, 192.0, 0.0, 0.0, 0.0, 0.0, 0.0, 0.0, 0.0, 0.0, 0.0, 1.708992643219136E9, 0.0, 2024-02-26 19:10:43.219
254.0, 187500.0, 187500.0, 187500.0, 187500.0, -145901.7942430728, 187500.0, 187500.0, -187500.02235174447, 0.06, 0.0, 0.984, 192.0, 0.0, 0.0, 0.0, 0.0, 0.0, 0.0, 0.0, 0.0, 0.0, 1.708992643223138E9, 0.0, 2024-02-26 19:10:43.223
255.0, 187500.0, 187500.0, 187500.0, 187500.0, -145995.8056802518, 187500.0, 187500.0, -187500.02235174447, 0.062, 0.0, 0.984, 192.0, 1.0, 240.0, 0.0, 0.0, 30.0, 192.0, 0.0, 0.0, 0.0, 1.708992643227125E9, 0.0, 2024-02-26 19:10:43.227
0.0, 187500.0, 187500.0, 187500.0, 187500.0, -146002.86883149968, 187500.0, 187500.0, -187500.02235174447, 0.062, 0.0, 0.984, 192.0, 0.0, 0.0, 0.0, 0.0, 0.0, 0.0, 0.0, 0.0, 0.0, 1.70899264323111E9, 0.0, 2024-02-26 19:10:43.231
1.0, 187500.0, 187500.0, 187500.0, 187500.0, -145992.76584300588, 187500.0, 187500.0, -187500.02235174447, 0.062, 0.0, 0.984, 192.0, 0.0, 0.0, 0.0, 0.0, 0.0, 0.0, 0.0, 0.0, 0.0, 1.708992643235113E9, 0.0, 2024-02-26 19:10:43.235
2.0, 187500.0, 187500.0, 187500.0, 187500.0, -146033.24485221444, 187500.0, 187500.0, -187500.02235174447, 0.062, 0.0, 0.984, 192.0, 0.0, 0.0, 0.0, 0.0, 0.0, 0.0, 0.0, 0.0, 0.0, 1.708992643238109E9, 0.0, 2024-02-26 19:10:43.238
3.0, 187500.0, 187500.0, 187500.0, 187500.0, -146102.9375914261, 187500.0, 187500.0, -187500.02235174447, 0.062, 0.0, 0.984, 192.0, 0.0, 0.0, 0.0, 0.0, 0.0, 0.0, 0.0, 0.0, 0.0, 1.708992643243123E9, 0.0, 2024-02-26 19:10:43.243
4.0, 187500.0, 187500.0, 187500.0, 187500.0, -146127.30099288237, 187500.0, 187500.0, -187500.02235174447, 0.062, 0.0, 0.984, 192.0, 0.0, 0.0, 0.0, 0.0, 0.0, 0.0, 0.0, 0.0, 0.0, 1.708992643247145E9, 0.0, 2024-02-26 19:10:43.247
5.0, 187500.0, 187500.0, 187500.0, 187500.0, -146072.8744951337, 187500.0, 187500.0, -187500.02235174447, 0.062, 0.0, 0.984, 192.0, 0.0, 0.0, 0.0, 0.0, 0.0, 0.0, 0.0, 0.0, 0.0, 1.708992643251132E9, 0.0, 2024-02-26 19:10:43.251
6.0, 187500.0, 187500.0, 187500.0, 187500.0, -146105.57509727182, 187500.0, 187500.0, -187500.02235174447, 0.062, 0.0, 0.984, 192.0, 0.0, 0.0, 0.0, 0.0, 0.0, 0.0, 0.0, 0.0, 0.0, 1.708992643255173E9, 0.0, 2024-02-26 19:10:43.255
7.0, 187500.0, 187500.0, 187500.0, 187500.0, -146181.77219411996, 187500.0, 187500.0, -187500.02235174447, 0.062, 0.0, 0.984, 192.0, 0.0, 0.0, 0.0, 0.0, 0.0, 0.0, 0.0, 0.0, 0.0, 1.708992643259167E9, 0.0, 2024-02-26 19:10:43.259
8.0, 187500.0, 187500.0, 187500.0, 187500.0, -146189.28238025695, 187500.0, 187500.0, -187500.02235174447, 0.062, -0.002, 0.984, 192.0, 1.0, 240.0, 255.0, 240.0, 30.0, 192.0, 0.0, 0.0, 0.0, 1.708992643263169E9, 0.0, 2024-02-26 19:10:43.263
9.0, 187500.0, 187500.0, 187500.0, 187500.0, -146162.9520252886, 187500.0, 187500.0, -187500.02235174447, 0.062, -0.002, 0.984, 192.0, 0.0, 0.0, 0.0, 0.0, 0.0, 0.0, 0.0, 0.0, 0.0, 1.708992643266166E9, 0.0, 2024-02-26 19:10:43.266
10.0, 187500.0, 187500.0, 187500.0, 187500.0, -146122.33890561332, 187500.0, 187500.0, -187500.02235174447, 0.062, -0.002, 0.984, 192.0, 0.0, 0.0, 0.0, 0.0, 0.0, 0.0, 0.0, 0.0, 0.0, 1.708992643271165E9, 0.0, 2024-02-26 19:10:43.271
11.0, 187500.0, 187500.0, 187500.0, 187500.0, -146180.69931038612, 187500.0, 187500.0, -187500.02235174447, 0.062, -0.002, 0.984, 192.0, 0.0, 0.0, 0.0, 0.0, 0.0, 0.0, 0.0, 0.0, 0.0, 1.708992643276162E9, 0.0, 2024-02-26 19:10:43.276
12.0, 187500.0, 187500.0, 187500.0, 187500.0, -146230.45429354362, 187500.0, 187500.0, -187500.02235174447, 0.062, -0.002, 0.984, 192.0, 0.0, 0.0, 0.0, 0.0, 0.0, 0.0, 0.0, 0.0, 0.0, 1.708992643279159E9, 0.0, 2024-02-26 19:10:43.279
13.0, 187500.0, 187500.0, 187500.0, 187500.0, -146157.6993653416, 187500.0, 187500.0, -187500.02235174447, 0.062, -0.002, 0.984, 192.0, 0.0, 0.0, 0.0, 0.0, 0.0, 0.0, 0.0, 0.0, 0.0, 1.708992643283177E9, 0.0, 2024-02-26 19:10:43.283
14.0, 187500.0, 187500.0, 187500.0, 187500.0, -146141.00261223348, 187500.0, 187500.0, -187500.02235174447, 0.062, -0.002, 0.984, 192.0, 0.0, 0.0, 0.0, 0.0, 0.0, 0.0, 0.0, 0.0, 0.0, 1.708992643286168E9, 0.0, 2024-02-26 19:10:43.286
15.0, 187500.0, 187500.0, 187500.0, 187500.0, -146224.55343300742, 187500.0, 187500.0, -187500.02235174447, 0.062, -0.002, 0.984, 192.0, 0.0, 0.0, 0.0, 0.0, 0.0, 0.0, 0.0, 0.0, 0.0, 1.708992643290199E9, 0.0, 2024-02-26 19:10:43.290
16.0, 187500.0, 187500.0, 187500.0, 187500.0, -146295.45316641967, 187500.0, 187500.0, -187500.02235174447, 0.062, -0.002, 0.984, 192.0, 0.0, 0.0, 0.0, 0.0, 0.0, 0.0, 0.0, 0.0, 0.0, 1.708992643294195E9, 0.0, 2024-02-26 19:10:43.294
17.0, 187500.0, 187500.0, 187500.0, 187500.0, -146210.33772353386, 187500.0, 187500.0, -187500.02235174447, 0.062, -0.002, 0.984, 192.0, 0.0, 0.0, 0.0, 0.0, 0.0, 0.0, 0.0, 0.0, 0.0, 1.708992643299198E9, 0.0, 2024-02-26 19:10:43.299
18.0, 187500.0, 187500.0, 187500.0, 187500.0, -146179.82759235235, 187500.0, 187500.0, -187500.02235174447, 0.064, -0.004, 0.98, 192.0, 2.0, 0.0, 255.0, 224.0, 30.0, 160.0, 0.0, 0.0, 0.0, 1.708992643304213E9, 0.0, 2024-02-26 19:10:43.304
19.0, 187500.0, 187500.0, 187500.0, 187500.0, -146255.08591593336, 187500.0, 187500.0, -187500.02235174447, 0.064, -0.004, 0.98, 192.0, 0.0, 0.0, 0.0, 0.0, 0.0, 0.0, 0.0, 0.0, 0.0, 1.70899264330721E9, 0.0, 2024-02-26 19:10:43.307
20.0, 187500.0, 187500.0, 187500.0, 187500.0, -146314.47450095112, 187500.0, 187500.0, -187500.02235174447, 0.064, -0.004, 0.98, 192.0, 0.0, 0.0, 0.0, 0.0, 0.0, 0.0, 0.0, 0.0, 0.0, 1.708992643311191E9, 0.0, 2024-02-26 19:10:43.311
21.0, 187500.0, 187500.0, 187500.0, 187500.0, -146285.90897153722, 187500.0, 187500.0, -187500.02235174447, 0.064, -0.004, 0.98, 192.0, 0.0, 0.0, 0.0, 0.0, 0.0, 0.0, 0.0, 0.0, 0.0, 1.708992643314177E9, 0.0, 2024-02-26 19:10:43.314
22.0, 187500.0, 187500.0, 187500.0, 187500.0, -146248.04511642994, 187500.0, 187500.0, -187500.02235174447, 0.064, -0.004, 0.98, 192.0, 0.0, 0.0, 0.0, 0.0, 0.0, 0.0, 0.0, 0.0, 0.0, 1.708992643318223E9, 0.0, 2024-02-26 19:10:43.318
23.0, 187500.0, 187500.0, 187500.0, 187500.0, -146274.8225062874, 187500.0, 187500.0, -187500.02235174447, 0.064, -0.004, 0.98, 192.0, 0.0, 0.0, 0.0, 0.0, 0.0, 0.0, 0.0, 0.0, 0.0, 1.708992643322221E9, 0.0, 2024-02-26 19:10:43.322
24.0, 187500.0, 187500.0, 187500.0, 187500.0, -146327.23734703512, 187500.0, 187500.0, -187500.02235174447, 0.064, -0.004, 0.98, 192.0, 0.0, 0.0, 0.0, 0.0, 0.0, 0.0, 0.0, 0.0, 0.0, 1.708992643326234E9, 0.0, 2024-02-26 19:10:43.326
25.0, 187500.0, 187500.0, 187500.0, 187500.0, -146271.76031729704, 187500.0, 187500.0, -187500.02235174447, 0.064, -0.004, 0.98, 192.0, 0.0, 0.0, 0.0, 0.0, 0.0, 0.0, 0.0, 0.0, 0.0, 1.708992643331233E9, 0.0, 2024-02-26 19:10:43.331
26.0, 187500.0, 187500.0, 187500.0, 187500.0, -146199.38536875075, 187500.0, 187500.0, -187500.02235174447, 0.064, -0.004, 0.98, 192.0, 0.0, 0.0, 0.0, 0.0, 0.0, 0.0, 0.0, 0.0, 0.0, 1.708992643335234E9, 0.0, 2024-02-26 19:10:43.335
27.0, 187500.0, 187500.0, 187500.0, 187500.0, -146222.05003762842, 187500.0, 187500.0, -187500.02235174447, 0.064, -0.004, 0.98, 192.0, 0.0, 0.0, 0.0, 0.0, 0.0, 0.0, 0.0, 0.0, 0.0, 1.708992643339237E9, 0.0, 2024-02-26 19:10:43.339
28.0, 187500.0, 187500.0, 187500.0, 187500.0, -146258.12575317928, 187500.0, 187500.0, -187500.02235174447, 0.064, 0.0, 0.98, 192.0, 2.0, 0.0, 0.0, 0.0, 30.0, 160.0, 0.0, 0.0, 0.0, 1.708992643342229E9, 0.0, 2024-02-26 19:10:43.342
29.0, 187500.0, 187500.0, 187500.0, 187500.0, -146237.29392734694, 187500.0, 187500.0, -187500.02235174447, 0.064, 0.0, 0.98, 192.0, 0.0, 0.0, 0.0, 0.0, 0.0, 0.0, 0.0, 0.0, 0.0, 1.708992643346225E9, 0.0, 2024-02-26 19:10:43.346
30.0, 187500.0, 187500.0, 187500.0, 187500.0, -146116.52745205493, 187500.0, 187500.0, -187500.02235174447, 0.064, 0.0, 0.98, 192.0, 0.0, 0.0, 0.0, 0.0, 0.0, 0.0, 0.0, 0.0, 0.0, 1.708992643350228E9, 0.0, 2024-02-26 19:10:43.350
31.0, 187500.0, 187500.0, 187500.0, 187500.0, -146099.0930913798, 187500.0, 187500.0, -187500.02235174447, 0.064, 0.0, 0.98, 192.0, 0.0, 0.0, 0.0, 0.0, 0.0, 0.0, 0.0, 0.0, 0.0, 1.708992643354231E9, 0.0, 2024-02-26 19:10:43.354
32.0, 187500.0, 187500.0, 187500.0, 187500.0, -146150.01036524898, 187500.0, 187500.0, -187500.02235174447, 0.064, 0.0, 0.98, 192.0, 0.0, 0.0, 0.0, 0.0, 0.0, 0.0, 0.0, 0.0, 0.0, 1.708992643359256E9, 0.0, 2024-02-26 19:10:43.359
33.0, 187500.0, 187500.0, 187500.0, 187500.0, -146119.29906836737, 187500.0, 187500.0, -187500.02235174447, 0.064, 0.0, 0.98, 192.0, 0.0, 0.0, 0.0, 0.0, 0.0, 0.0, 0.0, 0.0, 0.0, 1.708992643363238E9, 0.0, 2024-02-26 19:10:43.363
34.0, 187500.0, 187500.0, 187500.0, 187500.0, -146005.77455827888, 187500.0, 187500.0, -187500.02235174447, 0.064, 0.0, 0.98, 192.0, 0.0, 0.0, 0.0, 0.0, 0.0, 0.0, 0.0, 0.0, 0.0, 1.708992643367235E9, 0.0, 2024-02-26 19:10:43.367
35.0, 187500.0, 187500.0, 187500.0, 187500.0, -145951.2586535524, 187500.0, 187500.0, -187500.02235174447, 0.064, 0.0, 0.98, 192.0, 0.0, 0.0, 0.0, 0.0, 0.0, 0.0, 0.0, 0.0, 0.0, 1.708992643370277E9, 0.0, 2024-02-26 19:10:43.370
36.0, 187500.0, 187500.0, 187500.0, 187500.0, -145997.03502619686, 187500.0, 187500.0, -187500.02235174447, 0.064, 0.0, 0.98, 192.0, 0.0, 0.0, 0.0, 0.0, 0.0, 0.0, 0.0, 0.0, 0.0, 1.708992643374304E9, 0.0, 2024-02-26 19:10:43.374
37.0, 187500.0, 187500.0, 187500.0, 187500.0, -145988.45195632603, 187500.0, 187500.0, -187500.02235174447, 0.064, 0.0, 0.98, 192.0, 0.0, 0.0, 0.0, 0.0, 0.0, 0.0, 0.0, 0.0, 0.0, 1.708992643378276E9, 0.0, 2024-02-26 19:10:43.378
38.0, 187500.0, 187500.0, 187500.0, 187500.0, -145867.23844614488, 187500.0, 187500.0, -187500.02235174447, 0.068, -0.002, 0.982, 192.0, 2.0, 32.0, 255.0, 240.0, 30.0, 176.0, 0.0, 0.0, 0.0, 1.708992643382336E9, 0.0, 2024-02-26 19:10:43.382
39.0, 187500.0, 187500.0, 187500.0, 187500.0, -145830.24630907134, 187500.0, 187500.0, -187500.02235174447, 0.068, -0.002, 0.982, 192.0, 0.0, 0.0, 0.0, 0.0, 0.0, 0.0, 0.0, 0.0, 0.0, 1.708992643387282E9, 0.0, 2024-02-26 19:10:43.387
40.0, 187500.0, 187500.0, 187500.0, 187500.0, -145857.671899518, 187500.0, 187500.0, -187500.02235174447, 0.068, -0.002, 0.982, 192.0, 0.0, 0.0, 0.0, 0.0, 0.0, 0.0, 0.0, 0.0, 0.0, 1.708992643391286E9, 0.0, 2024-02-26 19:10:43.391
41.0, 187500.0, 187500.0, 187500.0, 187500.0, -145874.65922530406, 187500.0, 187500.0, -187500.02235174447, 0.068, -0.002, 0.982, 192.0, 0.0, 0.0, 0.0, 0.0, 0.0, 0.0, 0.0, 0.0, 0.0, 1.708992643395288E9, 0.0, 2024-02-26 19:10:43.395
42.0, 187500.0, 187500.0, 187500.0, 187500.0, -145804.6088581811, 187500.0, 187500.0, -187500.02235174447, 0.068, -0.002, 0.982, 192.0, 0.0, 0.0, 0.0, 0.0, 0.0, 0.0, 0.0, 0.0, 0.0, 1.708992643398278E9, 0.0, 2024-02-26 19:10:43.398
43.0, 187500.0, 187500.0, 187500.0, 187500.0, -145768.06375599667, 187500.0, 187500.0, -187500.02235174447, 0.068, -0.002, 0.982, 192.0, 0.0, 0.0, 0.0, 0.0, 0.0, 0.0, 0.0, 0.0, 0.0, 1.7089926434023E9, 0.0, 2024-02-26 19:10:43.402
44.0, 187500.0, 187500.0, 187500.0, 187500.0, -145834.04610562875, 187500.0, 187500.0, -187500.02235174447, 0.068, -0.002, 0.982, 192.0, 0.0, 0.0, 0.0, 0.0, 0.0, 0.0, 0.0, 0.0, 0.0, 1.708992643406288E9, 0.0, 2024-02-26 19:10:43.406
45.0, 187500.0, 187500.0, 187500.0, 187500.0, -145874.34630088168, 187500.0, 187500.0, -187500.02235174447, 0.068, -0.002, 0.982, 192.0, 0.0, 0.0, 0.0, 0.0, 0.0, 0.0, 0.0, 0.0, 0.0, 1.708992643410314E9, 0.0, 2024-02-26 19:10:43.410
46.0, 187500.0, 187500.0, 187500.0, 187500.0, -145808.2745442718, 187500.0, 187500.0, -187500.02235174447, 0.068, -0.002, 0.982, 192.0, 0.0, 0.0, 0.0, 0.0, 0.0, 0.0, 0.0, 0.0, 0.0, 1.708992643415342E9, 0.0, 2024-02-26 19:10:43.415
47.0, 187500.0, 187500.0, 187500.0, 187500.0, -145722.33208684114, 187500.0, 187500.0, -187500.02235174447, 0.068, -0.002, 0.982, 192.0, 0.0, 0.0, 0.0, 0.0, 0.0, 0.0, 0.0, 0.0, 0.0, 1.708992643419344E9, 0.0, 2024-02-26 19:10:43.419
48.0, 187500.0, 187500.0, 187500.0, 187500.0, -145755.7032413129, 187500.0, 187500.0, -187500.02235174447, 0.068, 0.004, 0.982, 192.0, 2.0, 32.0, 0.0, 32.0, 30.0, 176.0, 0.0, 0.0, 0.0, 1.708992643423343E9, 0.0, 2024-02-26 19:10:43.423
49.0, 187500.0, 187500.0, 187500.0, 187500.0, -145816.99172460934, 187500.0, 187500.0, -187500.02235174447, 0.068, 0.004, 0.982, 192.0, 0.0, 0.0, 0.0, 0.0, 0.0, 0.0, 0.0, 0.0, 0.0, 1.708992643426335E9, 0.0, 2024-02-26 19:10:43.426
50.0, 187500.0, 187500.0, 187500.0, 187500.0, -145810.8673466286, 187500.0, 187500.0, -187500.02235174447, 0.068, 0.004, 0.982, 192.0, 0.0, 0.0, 0.0, 0.0, 0.0, 0.0, 0.0, 0.0, 0.0, 1.708992643430317E9, 0.0, 2024-02-26 19:10:43.430
51.0, 187500.0, 187500.0, 187500.0, 187500.0, -145720.9462786849, 187500.0, 187500.0, -187500.02235174447, 0.068, 0.004, 0.982, 192.0, 0.0, 0.0, 0.0, 0.0, 0.0, 0.0, 0.0, 0.0, 0.0, 1.708992643436329E9, 0.0, 2024-02-26 19:10:43.436
52.0, 187500.0, 187500.0, 187500.0, 187500.0, -145731.1386741565, 187500.0, 187500.0, -187500.02235174447, 0.068, 0.004, 0.982, 192.0, 0.0, 0.0, 0.0, 0.0, 0.0, 0.0, 0.0, 0.0, 0.0, 1.708992643439332E9, 0.0, 2024-02-26 19:10:43.439
53.0, 187500.0, 187500.0, 187500.0, 187500.0, -145815.0247710973, 187500.0, 187500.0, -187500.02235174447, 0.068, 0.004, 0.982, 192.0, 0.0, 0.0, 0.0, 0.0, 0.0, 0.0, 0.0, 0.0, 0.0, 1.708992643443327E9, 0.0, 2024-02-26 19:10:43.443
54.0, 187500.0, 187500.0, 187500.0, 187500.0, -145856.30844310625, 187500.0, 187500.0, -187500.02235174447, 0.068, 0.004, 0.982, 192.0, 0.0, 0.0, 0.0, 0.0, 0.0, 0.0, 0.0, 0.0, 0.0, 1.708992643447353E9, 0.0, 2024-02-26 19:10:43.447
55.0, 187500.0, 187500.0, 187500.0, 187500.0, -145775.48453515585, 187500.0, 187500.0, -187500.02235174447, 0.068, 0.004, 0.982, 192.0, 0.0, 0.0, 0.0, 0.0, 0.0, 0.0, 0.0, 0.0, 0.0, 1.708992643450377E9, 0.0, 2024-02-26 19:10:43.450
56.0, 187500.0, 187500.0, 187500.0, 187500.0, -145752.88692151153, 187500.0, 187500.0, -187500.02235174447, 0.068, 0.004, 0.982, 192.0, 0.0, 0.0, 0.0, 0.0, 0.0, 0.0, 0.0, 0.0, 0.0, 1.708992643454377E9, 0.0, 2024-02-26 19:10:43.454
57.0, 187500.0, 187500.0, 187500.0, 187500.0, -145798.3503697336, 187500.0, 187500.0, -187500.02235174447, 0.068, 0.004, 0.982, 192.0, 0.0, 0.0, 0.0, 0.0, 0.0, 0.0, 0.0, 0.0, 0.0, 1.708992643458369E9, 0.0, 2024-02-26 19:10:43.458
58.0, 187500.0, 187500.0, 187500.0, 187500.0, -145855.30261460575, 187500.0, 187500.0, -187500.02235174447, 0.064, 0.0, 0.978, 192.0, 2.0, 0.0, 0.0, 0.0, 30.0, 144.0, 0.0, 0.0, 0.0, 1.708992643462362E9, 0.0, 2024-02-26 19:10:43.462
59.0, 187500.0, 187500.0, 187500.0, 187500.0, -145785.98985504985, 187500.0, 187500.0, -187500.02235174447, 0.064, 0.0, 0.978, 192.0, 0.0, 0.0, 0.0, 0.0, 0.0, 0.0, 0.0, 0.0, 0.0, 1.708992643466377E9, 0.0, 2024-02-26 19:10:43.466
60.0, 187500.0, 187500.0, 187500.0, 187500.0, -145748.6624418095, 187500.0, 187500.0, -187500.02235174447, 0.064, 0.0, 0.978, 192.0, 0.0, 0.0, 0.0, 0.0, 0.0, 0.0, 0.0, 0.0, 0.0, 1.708992643471382E9, 0.0, 2024-02-26 19:10:43.471
61.0, 187500.0, 187500.0, 187500.0, 187500.0, -145777.16091598998, 187500.0, 187500.0, -187500.02235174447, 0.064, 0.0, 0.978, 192.0, 0.0, 0.0, 0.0, 0.0, 0.0, 0.0, 0.0, 0.0, 0.0, 1.708992643475377E9, 0.0, 2024-02-26 19:10:43.475
62.0, 187500.0, 187500.0, 187500.0, 187500.0, -145800.0043988233, 187500.0, 187500.0, -187500.02235174447, 0.064, 0.0, 0.978, 192.0, 0.0, 0.0, 0.0, 0.0, 0.0, 0.0, 0.0, 0.0, 0.0, 1.708992643478397E9, 0.0, 2024-02-26 19:10:43.478
63.0, 187500.0, 187500.0, 187500.0, 187500.0, -145705.97060989984, 187500.0, 187500.0, -187500.02235174447, 0.064, 0.0, 0.978, 192.0, 0.0, 0.0, 0.0, 0.0, 0.0, 0.0, 0.0, 0.0, 0.0, 1.708992643482366E9, 0.0, 2024-02-26 19:10:43.482
64.0, 187500.0, 187500.0, 187500.0, 187500.0, -145677.20391478587, 187500.0, 187500.0, -187500.02235174447, 0.064, 0.0, 0.978, 192.0, 0.0, 0.0, 0.0, 0.0, 0.0, 0.0, 0.0, 0.0, 0.0, 1.708992643486402E9, 0.0, 2024-02-26 19:10:43.486
65.0, 187500.0, 187500.0, 187500.0, 187500.0, -145716.02889490474, 187500.0, 187500.0, -187500.02235174447, 0.064, 0.0, 0.978, 192.0, 0.0, 0.0, 0.0, 0.0, 0.0, 0.0, 0.0, 0.0, 0.0, 1.7089926434904E9, 0.0, 2024-02-26 19:10:43.490
66.0, 187500.0, 187500.0, 187500.0, 187500.0, -145750.74115404382, 187500.0, 187500.0, -187500.02235174447, 0.064, 0.0, 0.978, 192.0, 0.0, 0.0, 0.0, 0.0, 0.0, 0.0, 0.0, 0.0, 0.0, 1.708992643494399E9, 0.0, 2024-02-26 19:10:43.494
67.0, 187500.0, 187500.0, 187500.0, 187500.0, -145677.80741188617, 187500.0, 187500.0, -187500.02235174447, 0.064, 0.0, 0.978, 192.0, 0.0, 0.0, 0.0, 0.0, 0.0, 0.0, 0.0, 0.0, 0.0, 1.708992643498407E9, 0.0, 2024-02-26 19:10:43.498
68.0, 187500.0, 187500.0, 187500.0, 187500.0, -145616.60833556752, 187500.0, 187500.0, -187500.02235174447, 0.062, -0.004, 0.984, 192.0, 1.0, 240.0, 255.0, 224.0, 30.0, 192.0, 0.0, 0.0, 0.0, 1.708992643504401E9, 0.0, 2024-02-26 19:10:43.504
69.0, 187500.0, 187500.0, 187500.0, 187500.0, -145618.99997222424, 187500.0, 187500.0, -187500.02235174447, 0.062, -0.004, 0.984, 192.0, 0.0, 0.0, 0.0, 0.0, 0.0, 0.0, 0.0, 0.0, 0.0, 1.708992643507781E9, 0.0, 2024-02-26 19:10:43.507
70.0, 187500.0, 187500.0, 187500.0, 187500.0, -145656.55090290916, 187500.0, 187500.0, -187500.02235174447, 0.062, -0.004, 0.984, 192.0, 0.0, 0.0, 0.0, 0.0, 0.0, 0.0, 0.0, 0.0, 0.0, 1.708992643511426E9, 0.0, 2024-02-26 19:10:43.511
71.0, 187500.0, 187500.0, 187500.0, 187500.0, -145606.617105796, 187500.0, 187500.0, -187500.02235174447, 0.062, -0.004, 0.984, 192.0, 0.0, 0.0, 0.0, 0.0, 0.0, 0.0, 0.0, 0.0, 0.0, 1.708992643514418E9, 0.0, 2024-02-26 19:10:43.514
72.0, 187500.0, 187500.0, 187500.0, 187500.0, -145511.68924709433, 187500.0, 187500.0, -187500.02235174447, 0.062, -0.004, 0.984, 192.0, 0.0, 0.0, 0.0, 0.0, 0.0, 0.0, 0.0, 0.0, 0.0, 1.70899264351842E9, 0.0, 2024-02-26 19:10:43.518
73.0, 187500.0, 187500.0, 187500.0, 187500.0, -145498.70288356577, 187500.0, 187500.0, -187500.02235174447, 0.062, -0.004, 0.984, 192.0, 0.0, 0.0, 0.0, 0.0, 0.0, 0.0, 0.0, 0.0, 0.0, 1.708992643522413E9, 0.0, 2024-02-26 19:10:43.522
74.0, 187500.0, 187500.0, 187500.0, 187500.0, -145558.44909649482, 187500.0, 187500.0, -187500.02235174447, 0.062, -0.004, 0.984, 192.0, 0.0, 0.0, 0.0, 0.0, 0.0, 0.0, 0.0, 0.0, 0.0, 1.708992643527437E9, 0.0, 2024-02-26 19:10:43.527
75.0, 187500.0, 187500.0, 187500.0, 187500.0, -145543.6969451543, 187500.0, 187500.0, -187500.02235174447, 0.062, -0.004, 0.984, 192.0, 0.0, 0.0, 0.0, 0.0, 0.0, 0.0, 0.0, 0.0, 0.0, 1.708992643530418E9, 0.0, 2024-02-26 19:10:43.530
76.0, 187500.0, 187500.0, 187500.0, 187500.0, -145492.06441546255, 187500.0, 187500.0, -187500.02235174447, 0.062, -0.004, 0.984, 192.0, 0.0, 0.0, 0.0, 0.0, 0.0, 0.0, 0.0, 0.0, 0.0, 1.708992643535429E9, 0.0, 2024-02-26 19:10:43.535
77.0, 187500.0, 187500.0, 187500.0, 187500.0, -145524.9438315563, 187500.0, 187500.0, -187500.02235174447, 0.062, -0.004, 0.984, 192.0, 0.0, 0.0, 0.0, 0.0, 0.0, 0.0, 0.0, 0.0, 0.0, 1.70899264353853E9, 0.0, 2024-02-26 19:10:43.538
78.0, 187500.0, 187500.0, 187500.0, 187500.0, -145611.44508259834, 187500.0, 187500.0, -187500.02235174447, 0.066, -0.004, 0.984, 192.0, 2.0, 16.0, 255.0, 224.0, 30.0, 192.0, 0.0, 0.0, 0.0, 1.708992643542472E9, 0.0, 2024-02-26 19:10:43.542
79.0, 187500.0, 187500.0, 187500.0, 187500.0, -145630.35465840754, 187500.0, 187500.0, -187500.02235174447, 0.066, -0.004, 0.984, 192.0, 0.0, 0.0, 0.0, 0.0, 0.0, 0.0, 0.0, 0.0, 0.0, 1.708992643546487E9, 0.0, 2024-02-26 19:10:43.546
80.0, 187500.0, 187500.0, 187500.0, 187500.0, -145577.9621694043, 187500.0, 187500.0, -187500.02235174447, 0.066, -0.004, 0.984, 192.0, 0.0, 0.0, 0.0, 0.0, 0.0, 0.0, 0.0, 0.0, 0.0, 1.708992643550475E9, 0.0, 2024-02-26 19:10:43.550
81.0, 187500.0, 187500.0, 187500.0, 187500.0, -145618.1282541905, 187500.0, 187500.0, -187500.02235174447, 0.066, -0.004, 0.984, 192.0, 0.0, 0.0, 0.0, 0.0, 0.0, 0.0, 0.0, 0.0, 0.0, 1.708992643555491E9, 0.0, 2024-02-26 19:10:43.555
82.0, 187500.0, 187500.0, 187500.0, 187500.0, -145728.7917409887, 187500.0, 187500.0, -187500.02235174447, 0.066, -0.004, 0.984, 192.0, 0.0, 0.0, 0.0, 0.0, 0.0, 0.0, 0.0, 0.0, 0.0, 1.708992643558481E9, 0.0, 2024-02-26 19:10:43.558
83.0, 187500.0, 187500.0, 187500.0, 187500.0, -145776.33390144515, 187500.0, 187500.0, -187500.02235174447, 0.066, -0.004, 0.984, 192.0, 0.0, 0.0, 0.0, 0.0, 0.0, 0.0, 0.0, 0.0, 0.0, 1.708992643561467E9, 0.0, 2024-02-26 19:10:43.561
84.0, 187500.0, 187500.0, 187500.0, 187500.0, -145715.76067397126, 187500.0, 187500.0, -187500.02235174447, 0.066, -0.004, 0.984, 192.0, 0.0, 0.0, 0.0, 0.0, 0.0, 0.0, 0.0, 0.0, 0.0, 1.708992643566483E9, 0.0, 2024-02-26 19:10:43.566
85.0, 187500.0, 187500.0, 187500.0, 187500.0, -145723.91906069746, 187500.0, 187500.0, -187500.02235174447, 0.066, -0.004, 0.984, 192.0, 0.0, 0.0, 0.0, 0.0, 0.0, 0.0, 0.0, 0.0, 0.0, 1.708992643570464E9, 0.0, 2024-02-26 19:10:43.570
86.0, 187500.0, 187500.0, 187500.0, 187500.0, -145824.2783933018, 187500.0, 187500.0, -187500.02235174447, 0.066, -0.004, 0.984, 192.0, 0.0, 0.0, 0.0, 0.0, 0.0, 0.0, 0.0, 0.0, 0.0, 1.708992643574505E9, 0.0, 2024-02-26 19:10:43.574
87.0, 187500.0, 187500.0, 187500.0, 187500.0, -145909.48324316542, 187500.0, 187500.0, -187500.02235174447, 0.066, -0.004, 0.984, 192.0, 0.0, 0.0, 0.0, 0.0, 0.0, 0.0, 0.0, 0.0, 0.0, 1.708992643578528E9, 0.0, 2024-02-26 19:10:43.578
88.0, 187500.0, 187500.0, 187500.0, 187500.0, -145889.5901906002, 187500.0, 187500.0, -187500.02235174447, 0.066, -0.006, 0.984, 192.0, 2.0, 16.0, 255.0, 208.0, 30.0, 192.0, 0.0, 0.0, 0.0, 1.70899264358252E9, 0.0, 2024-02-26 19:10:43.582
89.0, 187500.0, 187500.0, 187500.0, 187500.0, -145874.39100437058, 187500.0, 187500.0, -187500.02235174447, 0.066, -0.006, 0.984, 192.0, 0.0, 0.0, 0.0, 0.0, 0.0, 0.0, 0.0, 0.0, 0.0, 1.708992643587521E9, 0.0, 2024-02-26 19:10:43.587
90.0, 187500.0, 187500.0, 187500.0, 187500.0, -145949.26934829587, 187500.0, 187500.0, -187500.02235174447, 0.066, -0.006, 0.984, 192.0, 0.0, 0.0, 0.0, 0.0, 0.0, 0.0, 0.0, 0.0, 0.0, 1.708992643590514E9, 0.0, 2024-02-26 19:10:43.590
91.0, 187500.0, 187500.0, 187500.0, 187500.0, -146012.34597114872, 187500.0, 187500.0, -187500.02235174447, 0.066, -0.006, 0.984, 192.0, 0.0, 0.0, 0.0, 0.0, 0.0, 0.0, 0.0, 0.0, 0.0, 1.708992643594506E9, 0.0, 2024-02-26 19:10:43.594
92.0, 187500.0, 187500.0, 187500.0, 187500.0, -145989.83776448225, 187500.0, 187500.0, -187500.02235174447, 0.066, -0.006, 0.984, 192.0, 0.0, 0.0, 0.0, 0.0, 0.0, 0.0, 0.0, 0.0, 0.0, 1.7089926435985E9, 0.0, 2024-02-26 19:10:43.598
93.0, 187500.0, 187500.0, 187500.0, 187500.0, -145934.2936795108, 187500.0, 187500.0, -187500.02235174447, 0.066, -0.006, 0.984, 192.0, 0.0, 0.0, 0.0, 0.0, 0.0, 0.0, 0.0, 0.0, 0.0, 1.708992643602501E9, 0.0, 2024-02-26 19:10:43.602
94.0, 187500.0, 187500.0, 187500.0, 187500.0, -145964.53558975883, 187500.0, 187500.0, -187500.02235174447, 0.066, -0.006, 0.984, 192.0, 0.0, 0.0, 0.0, 0.0, 0.0, 0.0, 0.0, 0.0, 0.0, 1.708992643606501E9, 0.0, 2024-02-26 19:10:43.606
95.0, 187500.0, 187500.0, 187500.0, 187500.0, -146021.3090206753, 187500.0, 187500.0, -187500.02235174447, 0.066, -0.006, 0.984, 192.0, 0.0, 0.0, 0.0, 0.0, 0.0, 0.0, 0.0, 0.0, 0.0, 1.708992643611534E9, 0.0, 2024-02-26 19:10:43.611
96.0, 187500.0, 187500.0, 187500.0, 187500.0, -145974.63857825263, 187500.0, 187500.0, -187500.02235174447, 0.066, -0.006, 0.984, 192.0, 0.0, 0.0, 0.0, 0.0, 0.0, 0.0, 0.0, 0.0, 0.0, 1.708992643614519E9, 0.0, 2024-02-26 19:10:43.614
97.0, 187500.0, 187500.0, 187500.0, 187500.0, -145890.35014991168, 187500.0, 187500.0, -187500.02235174447, 0.064, -0.002, 0.984, 192.0, 2.0, 0.0, 255.0, 240.0, 30.0, 192.0, 0.0, 0.0, 0.0, 1.708992643617557E9, 0.0, 2024-02-26 19:10:43.617
98.0, 187500.0, 187500.0, 187500.0, 187500.0, -145905.07994950772, 187500.0, 187500.0, -187500.02235174447, 0.064, -0.002, 0.984, 192.0, 0.0, 0.0, 0.0, 0.0, 0.0, 0.0, 0.0, 0.0, 0.0, 1.708992643621561E9, 0.0, 2024-02-26 19:10:43.621
99.0, 187500.0, 187500.0, 187500.0, 187500.0, -145959.01470887839, 187500.0, 187500.0, -187500.02235174447, 0.064, -0.002, 0.984, 192.0, 0.0, 0.0, 0.0, 0.0, 0.0, 0.0, 0.0, 0.0, 0.0, 1.708992643626552E9, 0.0, 2024-02-26 19:10:43.626
100.0, 187500.0, 187500.0, 187500.0, 187500.0, -145923.38602821663, 187500.0, 187500.0, -187500.02235174447, 0.064, -0.002, 0.984, 192.0, 0.0, 0.0, 0.0, 0.0, 0.0, 0.0, 0.0, 0.0, 0.0, 1.708992643630546E9, 0.0, 2024-02-26 19:10:43.630
101.0, 187500.0, 187500.0, 187500.0, 187500.0, -145831.18508233846, 187500.0, 187500.0, -187500.02235174447, 0.064, -0.002, 0.984, 192.0, 0.0, 0.0, 0.0, 0.0, 0.0, 0.0, 0.0, 0.0, 0.0, 1.708992643634548E9, 0.0, 2024-02-26 19:10:43.634
102.0, 187500.0, 187500.0, 187500.0, 187500.0, -145834.2696230733, 187500.0, 187500.0, -187500.02235174447, 0.064, -0.002, 0.984, 192.0, 0.0, 0.0, 0.0, 0.0, 0.0, 0.0, 0.0, 0.0, 0.0, 1.708992643638548E9, 0.0, 2024-02-26 19:10:43.638
103.0, 187500.0, 187500.0, 187500.0, 187500.0, -145876.2238474159, 187500.0, 187500.0, -187500.02235174447, 0.064, -0.002, 0.984, 192.0, 0.0, 0.0, 0.0, 0.0, 0.0, 0.0, 0.0, 0.0, 0.0, 1.708992643643589E9, 0.0, 2024-02-26 19:10:43.643
104.0, 187500.0, 187500.0, 187500.0, 187500.0, -145847.56891102422, 187500.0, 187500.0, -187500.02235174447, 0.064, -0.002, 0.984, 192.0, 0.0, 0.0, 0.0, 0.0, 0.0, 0.0, 0.0, 0.0, 0.0, 1.708992643646562E9, 0.0, 2024-02-26 19:10:43.646
105.0, 187500.0, 187500.0, 187500.0, 187500.0, -145758.407802392, 187500.0, 187500.0, -187500.02235174447, 0.064, -0.002, 0.984, 192.0, 0.0, 0.0, 0.0, 0.0, 0.0, 0.0, 0.0, 0.0, 0.0, 1.708992643650552E9, 0.0, 2024-02-26 19:10:43.650
106.0, 187500.0, 187500.0, 187500.0, 187500.0, -145756.97729074684, 187500.0, 187500.0, -187500.02235174447, 0.064, -0.002, 0.984, 192.0, 0.0, 0.0, 0.0, 0.0, 0.0, 0.0, 0.0, 0.0, 0.0, 1.708992643654548E9, 0.0, 2024-02-26 19:10:43.654
107.0, 187500.0, 187500.0, 187500.0, 187500.0, -145808.1627855495, 187500.0, 187500.0, -187500.02235174447, 0.058, -0.004, 0.984, 192.0, 1.0, 208.0, 255.0, 224.0, 30.0, 192.0, 0.0, 0.0, 0.0, 1.708992643658544E9, 0.0, 2024-02-26 19:10:43.658
108.0, 187500.0, 187500.0, 187500.0, 187500.0, -145866.74670776687, 187500.0, 187500.0, -187500.02235174447, 0.058, -0.004, 0.984, 192.0, 0.0, 0.0, 0.0, 0.0, 0.0, 0.0, 0.0, 0.0, 0.0, 1.708992643662639E9, 0.0, 2024-02-26 19:10:43.662
109.0, 187500.0, 187500.0, 187500.0, 187500.0, -145819.2716025438, 187500.0, 187500.0, -187500.02235174447, 0.058, -0.004, 0.984, 192.0, 0.0, 0.0, 0.0, 0.0, 0.0, 0.0, 0.0, 0.0, 0.0, 1.708992643665599E9, 0.0, 2024-02-26 19:10:43.665
110.0, 187500.0, 187500.0, 187500.0, 187500.0, -145818.8245676547, 187500.0, 187500.0, -187500.02235174447, 0.058, -0.004, 0.984, 192.0, 0.0, 0.0, 0.0, 0.0, 0.0, 0.0, 0.0, 0.0, 0.0, 1.708992643669604E9, 0.0, 2024-02-26 19:10:43.669
111.0, 187500.0, 187500.0, 187500.0, 187500.0, -145842.96445166643, 187500.0, 187500.0, -187500.02235174447, 0.058, -0.004, 0.984, 192.0, 0.0, 0.0, 0.0, 0.0, 0.0, 0.0, 0.0, 0.0, 0.0, 1.708992643673608E9, 0.0, 2024-02-26 19:10:43.673
112.0, 187500.0, 187500.0, 187500.0, 187500.0, -145915.51821416835, 187500.0, 187500.0, -187500.02235174447, 0.058, -0.004, 0.984, 192.0, 0.0, 0.0, 0.0, 0.0, 0.0, 0.0, 0.0, 0.0, 0.0, 1.7089926436786E9, 0.0, 2024-02-26 19:10:43.678
113.0, 187500.0, 187500.0, 187500.0, 187500.0, -145900.0955104942, 187500.0, 187500.0, -187500.02235174447, 0.058, -0.004, 0.984, 192.0, 0.0, 0.0, 0.0, 0.0, 0.0, 0.0, 0.0, 0.0, 0.0, 1.7089926436816E9, 0.0, 2024-02-26 19:10:43.681
114.0, 187500.0, 187500.0, 187500.0, 187500.0, -145902.10716749515, 187500.0, 187500.0, -187500.02235174447, 0.058, -0.004, 0.984, 192.0, 0.0, 0.0, 0.0, 0.0, 0.0, 0.0, 0.0, 0.0, 0.0, 1.708992643685594E9, 0.0, 2024-02-26 19:10:43.685
115.0, 187500.0, 187500.0, 187500.0, 187500.0, -146012.83770952676, 187500.0, 187500.0, -187500.02235174447, 0.058, -0.004, 0.984, 192.0, 0.0, 0.0, 0.0, 0.0, 0.0, 0.0, 0.0, 0.0, 0.0, 1.708992643689606E9, 0.0, 2024-02-26 19:10:43.689
116.0, 187500.0, 187500.0, 187500.0, 187500.0, -146109.53135604042, 187500.0, 187500.0, -187500.02235174447, 0.058, -0.004, 0.984, 192.0, 0.0, 0.0, 0.0, 0.0, 0.0, 0.0, 0.0, 0.0, 0.0, 1.70899264369459E9, 0.0, 2024-02-26 19:10:43.694
117.0, 187500.0, 187500.0, 187500.0, 187500.0, -146069.3652712542, 187500.0, 187500.0, -187500.02235174447, 0.064, -0.002, 0.986, 192.0, 2.0, 0.0, 255.0, 240.0, 30.0, 208.0, 0.0, 0.0, 0.0, 1.708992643698598E9, 0.0, 2024-02-26 19:10:43.698
118.0, 187500.0, 187500.0, 187500.0, 187500.0, -146053.94256758006, 187500.0, 187500.0, -187500.02235174447, 0.064, -0.002, 0.986, 192.0, 0.0, 0.0, 0.0, 0.0, 0.0, 0.0, 0.0, 0.0, 0.0, 1.708992643702594E9, 0.0, 2024-02-26 19:10:43.702
119.0, 187500.0, 187500.0, 187500.0, 187500.0, -146126.96571671555, 187500.0, 187500.0, -187500.02235174447, 0.064, -0.002, 0.986, 192.0, 0.0, 0.0, 0.0, 0.0, 0.0, 0.0, 0.0, 0.0, 0.0, 1.708992643706594E9, 0.0, 2024-02-26 19:10:43.706
120.0, 187500.0, 187500.0, 187500.0, 187500.0, -146212.23762181256, 187500.0, 187500.0, -187500.02235174447, 0.064, -0.002, 0.986, 192.0, 0.0, 0.0, 0.0, 0.0, 0.0, 0.0, 0.0, 0.0, 0.0, 1.708992643709603E9, 0.0, 2024-02-26 19:10:43.709
121.0, 187500.0, 187500.0, 187500.0, 187500.0, -146201.21821179608, 187500.0, 187500.0, -187500.02235174447, 0.064, -0.002, 0.986, 192.0, 0.0, 0.0, 0.0, 0.0, 0.0, 0.0, 0.0, 0.0, 0.0, 1.708992643713637E9, 0.0, 2024-02-26 19:10:43.713
122.0, 187500.0, 187500.0, 187500.0, 187500.0, -146141.5390541004, 187500.0, 187500.0, -187500.02235174447, 0.064, -0.002, 0.986, 192.0, 0.0, 0.0, 0.0, 0.0, 0.0, 0.0, 0.0, 0.0, 0.0, 1.708992643717632E9, 0.0, 2024-02-26 19:10:43.717
123.0, 187500.0, 187500.0, 187500.0, 187500.0, -146154.07838273983, 187500.0, 187500.0, -187500.02235174447, 0.064, -0.002, 0.986, 192.0, 0.0, 0.0, 0.0, 0.0, 0.0, 0.0, 0.0, 0.0, 0.0, 1.708992643722665E9, 0.0, 2024-02-26 19:10:43.722
124.0, 187500.0, 187500.0, 187500.0, 187500.0, -146203.4086827527, 187500.0, 187500.0, -187500.02235174447, 0.064, -0.002, 0.986, 192.0, 0.0, 0.0, 0.0, 0.0, 0.0, 0.0, 0.0, 0.0, 0.0, 1.708992643726654E9, 0.0, 2024-02-26 19:10:43.726
125.0, 187500.0, 187500.0, 187500.0, 187500.0, -146202.46990948558, 187500.0, 187500.0, -187500.02235174447, 0.064, -0.002, 0.986, 192.0, 0.0, 0.0, 0.0, 0.0, 0.0, 0.0, 0.0, 0.0, 0.0, 1.708992643730663E9, 0.0, 2024-02-26 19:10:43.730
126.0, 187500.0, 187500.0, 187500.0, 187500.0, -146099.47307103552, 187500.0, 187500.0, -187500.02235174447, 0.064, -0.002, 0.986, 192.0, 0.0, 0.0, 0.0, 0.0, 0.0, 0.0, 0.0, 0.0, 0.0, 1.708992643733643E9, 0.0, 2024-02-26 19:10:43.733
127.0, 187500.0, 187500.0, 187500.0, 187500.0, -146073.2768265339, 187500.0, 187500.0, -187500.02235174447, 0.064, 0.0, 0.982, 192.0, 2.0, 0.0, 0.0, 0.0, 30.0, 176.0, 0.0, 0.0, 0.0, 1.708992643737645E9, 0.0, 2024-02-26 19:10:43.737
128.0, 187500.0, 187500.0, 187500.0, 187500.0, -146090.71118720903, 187500.0, 187500.0, -187500.02235174447, 0.064, 0.0, 0.982, 192.0, 0.0, 0.0, 0.0, 0.0, 0.0, 0.0, 0.0, 0.0, 0.0, 1.708992643741638E9, 0.0, 2024-02-26 19:10:43.741
129.0, 187500.0, 187500.0, 187500.0, 187500.0, -146074.84144864578, 187500.0, 187500.0, -187500.02235174447, 0.064, 0.0, 0.982, 192.0, 0.0, 0.0, 0.0, 0.0, 0.0, 0.0, 0.0, 0.0, 0.0, 1.708992643745644E9, 0.0, 2024-02-26 19:10:43.745
130.0, 187500.0, 187500.0, 187500.0, 187500.0, -145918.78156885883, 187500.0, 187500.0, -187500.02235174447, 0.064, 0.0, 0.982, 192.0, 0.0, 0.0, 0.0, 0.0, 0.0, 0.0, 0.0, 0.0, 0.0, 1.70899264375066E9, 0.0, 2024-02-26 19:10:43.750
131.0, 187500.0, 187500.0, 187500.0, 187500.0, -145859.81766698573, 187500.0, 187500.0, -187500.02235174447, 0.064, 0.0, 0.982, 192.0, 0.0, 0.0, 0.0, 0.0, 0.0, 0.0, 0.0, 0.0, 0.0, 1.708992643754654E9, 0.0, 2024-02-26 19:10:43.754
132.0, 187500.0, 187500.0, 187500.0, 187500.0, -145874.7262805374, 187500.0, 187500.0, -187500.02235174447, 0.064, 0.0, 0.982, 192.0, 0.0, 0.0, 0.0, 0.0, 0.0, 0.0, 0.0, 0.0, 0.0, 1.708992643758694E9, 0.0, 2024-02-26 19:10:43.758
133.0, 187500.0, 187500.0, 187500.0, 187500.0, -145826.20064332493, 187500.0, 187500.0, -187500.02235174447, 0.064, 0.0, 0.982, 192.0, 0.0, 0.0, 0.0, 0.0, 0.0, 0.0, 0.0, 0.0, 0.0, 1.708992643761685E9, 0.0, 2024-02-26 19:10:43.761
134.0, 187500.0, 187500.0, 187500.0, 187500.0, -145670.4760397048, 187500.0, 187500.0, -187500.02235174447, 0.064, 0.0, 0.982, 192.0, 0.0, 0.0, 0.0, 0.0, 0.0, 0.0, 0.0, 0.0, 0.0, 1.708992643765684E9, 0.0, 2024-02-26 19:10:43.765
135.0, 187500.0, 187500.0, 187500.0, 187500.0, -145611.84741399853, 187500.0, 187500.0, -187500.02235174447, 0.064, 0.0, 0.982, 192.0, 0.0, 0.0, 0.0, 0.0, 0.0, 0.0, 0.0, 0.0, 0.0, 1.708992643771694E9, 0.0, 2024-02-26 19:10:43.771
136.0, 187500.0, 187500.0, 187500.0, 187500.0, -145610.34984712003, 187500.0, 187500.0, -187500.02235174447, 0.064, 0.0, 0.982, 192.0, 0.0, 0.0, 0.0, 0.0, 0.0, 0.0, 0.0, 0.0, 0.0, 1.708992643774686E9, 0.0, 2024-02-26 19:10:43.774
137.0, 187500.0, 187500.0, 187500.0, 187500.0, -145609.90281223092, 187500.0, 187500.0, -187500.02235174447, 0.064, 0.0, 0.98, 192.0, 2.0, 0.0, 0.0, 0.0, 30.0, 160.0, 0.0, 0.0, 0.0, 1.708992643777691E9, 0.0, 2024-02-26 19:10:43.777
138.0, 187500.0, 187500.0, 187500.0, 187500.0, -145479.81565950104, 187500.0, 187500.0, -187500.02235174447, 0.064, 0.0, 0.98, 192.0, 0.0, 0.0, 0.0, 0.0, 0.0, 0.0, 0.0, 0.0, 0.0, 1.708992643782695E9, 0.0, 2024-02-26 19:10:43.782
139.0, 187500.0, 187500.0, 187500.0, 187500.0, -145418.30365876004, 187500.0, 187500.0, -187500.02235174447, 0.064, 0.0, 0.98, 192.0, 0.0, 0.0, 0.0, 0.0, 0.0, 0.0, 0.0, 0.0, 0.0, 1.708992643786683E9, 0.0, 2024-02-26 19:10:43.786
140.0, 187500.0, 187500.0, 187500.0, 187500.0, -145422.48343497317, 187500.0, 187500.0, -187500.02235174447, 0.064, 0.0, 0.98, 192.0, 0.0, 0.0, 0.0, 0.0, 0.0, 0.0, 0.0, 0.0, 0.0, 1.708992643789678E9, 0.0, 2024-02-26 19:10:43.789
141.0, 187500.0, 187500.0, 187500.0, 187500.0, -145448.99260389718, 187500.0, 187500.0, -187500.02235174447, 0.064, 0.0, 0.98, 192.0, 0.0, 0.0, 0.0, 0.0, 0.0, 0.0, 0.0, 0.0, 0.0, 1.708992643793678E9, 0.0, 2024-02-26 19:10:43.793
142.0, 187500.0, 187500.0, 187500.0, 187500.0, -145373.75663206063, 187500.0, 187500.0, -187500.02235174447, 0.064, 0.0, 0.98, 192.0, 0.0, 0.0, 0.0, 0.0, 0.0, 0.0, 0.0, 0.0, 0.0, 1.7089926437977E9, 0.0, 2024-02-26 19:10:43.797
143.0, 187500.0, 187500.0, 187500.0, 187500.0, -145274.7384041236, 187500.0, 187500.0, -187500.02235174447, 0.064, 0.0, 0.98, 192.0, 0.0, 0.0, 0.0, 0.0, 0.0, 0.0, 0.0, 0.0, 0.0, 1.708992643801727E9, 0.0, 2024-02-26 19:10:43.801
144.0, 187500.0, 187500.0, 187500.0, 187500.0, -145289.55761069746, 187500.0, 187500.0, -187500.02235174447, 0.064, 0.0, 0.98, 192.0, 0.0, 0.0, 0.0, 0.0, 0.0, 0.0, 0.0, 0.0, 0.0, 1.708992643805721E9, 0.0, 2024-02-26 19:10:43.805
145.0, 187500.0, 187500.0, 187500.0, 187500.0, -145334.68578275273, 187500.0, 187500.0, -187500.02235174447, 0.064, 0.0, 0.98, 192.0, 0.0, 0.0, 0.0, 0.0, 0.0, 0.0, 0.0, 0.0, 0.0, 1.708992643810737E9, 0.0, 2024-02-26 19:10:43.810
146.0, 187500.0, 187500.0, 187500.0, 187500.0, -145288.8423548749, 187500.0, 187500.0, -187500.02235174447, 0.064, 0.0, 0.98, 192.0, 0.0, 0.0, 0.0, 0.0, 0.0, 0.0, 0.0, 0.0, 0.0, 1.708992643814737E9, 0.0, 2024-02-26 19:10:43.814
147.0, 187500.0, 187500.0, 187500.0, 187500.0, -145229.83374951288, 187500.0, 187500.0, -187500.02235174447, 0.064, 0.0, 0.982, 192.0, 2.0, 0.0, 0.0, 0.0, 30.0, 176.0, 0.0, 0.0, 0.0, 1.708992643817742E9, 0.0, 2024-02-26 19:10:43.817
148.0, 187500.0, 187500.0, 187500.0, 187500.0, -145259.65097661628, 187500.0, 187500.0, -187500.02235174447, 0.064, 0.0, 0.982, 192.0, 0.0, 0.0, 0.0, 0.0, 0.0, 0.0, 0.0, 0.0, 0.0, 1.708992643821731E9, 0.0, 2024-02-26 19:10:43.821
149.0, 187500.0, 187500.0, 187500.0, 187500.0, -145330.7518757286, 187500.0, 187500.0, -187500.02235174447, 0.064, 0.0, 0.982, 192.0, 0.0, 0.0, 0.0, 0.0, 0.0, 0.0, 0.0, 0.0, 0.0, 1.708992643825736E9, 0.0, 2024-02-26 19:10:43.825
150.0, 187500.0, 187500.0, 187500.0, 187500.0, -145332.6964774962, 187500.0, 187500.0, -187500.02235174447, 0.064, 0.0, 0.982, 192.0, 0.0, 0.0, 0.0, 0.0, 0.0, 0.0, 0.0, 0.0, 0.0, 1.708992643829805E9, 0.0, 2024-02-26 19:10:43.829
151.0, 187500.0, 187500.0, 187500.0, 187500.0, -145257.01347077056, 187500.0, 187500.0, -187500.02235174447, 0.064, 0.0, 0.982, 192.0, 0.0, 0.0, 0.0, 0.0, 0.0, 0.0, 0.0, 0.0, 0.0, 1.708992643833778E9, 0.0, 2024-02-26 19:10:43.833
152.0, 187500.0, 187500.0, 187500.0, 187500.0, -145237.36628739434, 187500.0, 187500.0, -187500.02235174447, 0.064, 0.0, 0.982, 192.0, 0.0, 0.0, 0.0, 0.0, 0.0, 0.0, 0.0, 0.0, 0.0, 1.708992643838774E9, 0.0, 2024-02-26 19:10:43.838
153.0, 187500.0, 187500.0, 187500.0, 187500.0, -145292.26217177656, 187500.0, 187500.0, -187500.02235174447, 0.064, 0.0, 0.982, 192.0, 0.0, 0.0, 0.0, 0.0, 0.0, 0.0, 0.0, 0.0, 0.0, 1.708992643842765E9, 0.0, 2024-02-26 19:10:43.842
154.0, 187500.0, 187500.0, 187500.0, 187500.0, -145316.06677962147, 187500.0, 187500.0, -187500.02235174447, 0.064, 0.0, 0.982, 192.0, 0.0, 0.0, 0.0, 0.0, 0.0, 0.0, 0.0, 0.0, 0.0, 1.708992643845763E9, 0.0, 2024-02-26 19:10:43.845
155.0, 187500.0, 187500.0, 187500.0, 187500.0, -145219.9319267192, 187500.0, 187500.0, -187500.02235174447, 0.064, 0.0, 0.982, 192.0, 0.0, 0.0, 0.0, 0.0, 0.0, 0.0, 0.0, 0.0, 0.0, 1.70899264384978E9, 0.0, 2024-02-26 19:10:43.849
156.0, 187500.0, 187500.0, 187500.0, 187500.0, -145220.35660986384, 187500.0, 187500.0, -187500.02235174447, 0.064, 0.0, 0.982, 192.0, 0.0, 0.0, 0.0, 0.0, 0.0, 0.0, 0.0, 0.0, 0.0, 1.708992643853775E9, 0.0, 2024-02-26 19:10:43.853
157.0, 187500.0, 187500.0, 187500.0, 187500.0, -145300.66642769176, 187500.0, 187500.0, -187500.02235174447, 0.066, -0.004, 0.98, 192.0, 2.0, 16.0, 255.0, 224.0, 30.0, 160.0, 0.0, 0.0, 0.0, 1.708992643857766E9, 0.0, 2024-02-26 19:10:43.857
158.0, 187500.0, 187500.0, 187500.0, 187500.0, -145374.00250124963, 187500.0, 187500.0, -187500.02235174447, 0.066, -0.004, 0.98, 192.0, 0.0, 0.0, 0.0, 0.0, 0.0, 0.0, 0.0, 0.0, 0.0, 1.708992643861777E9, 0.0, 2024-02-26 19:10:43.861
159.0, 187500.0, 187500.0, 187500.0, 187500.0, -145280.70631989316, 187500.0, 187500.0, -187500.02235174447, 0.066, -0.004, 0.98, 192.0, 0.0, 0.0, 0.0, 0.0, 0.0, 0.0, 0.0, 0.0, 0.0, 1.70899264386777E9, 0.0, 2024-02-26 19:10:43.867
160.0, 187500.0, 187500.0, 187500.0, 187500.0, -145262.2437789731, 187500.0, 187500.0, -187500.02235174447, 0.066, -0.004, 0.98, 192.0, 0.0, 0.0, 0.0, 0.0, 0.0, 0.0, 0.0, 0.0, 0.0, 1.708992643870771E9, 0.0, 2024-02-26 19:10:43.870
161.0, 187500.0, 187500.0, 187500.0, 187500.0, -145338.0161926766, 187500.0, 187500.0, -187500.02235174447, 0.066, -0.004, 0.98, 192.0, 0.0, 0.0, 0.0, 0.0, 0.0, 0.0, 0.0, 0.0, 0.0, 1.708992643874853E9, 0.0, 2024-02-26 19:10:43.874
162.0, 187500.0, 187500.0, 187500.0, 187500.0, -145384.5078211436, 187500.0, 187500.0, -187500.02235174447, 0.066, -0.004, 0.98, 192.0, 0.0, 0.0, 0.0, 0.0, 0.0, 0.0, 0.0, 0.0, 0.0, 1.708992643877868E9, 0.0, 2024-02-26 19:10:43.877
163.0, 187500.0, 187500.0, 187500.0, 187500.0, -145329.299012339, 187500.0, 187500.0, -187500.02235174447, 0.066, -0.004, 0.98, 192.0, 0.0, 0.0, 0.0, 0.0, 0.0, 0.0, 0.0, 0.0, 0.0, 1.708992643882862E9, 0.0, 2024-02-26 19:10:43.882
164.0, 187500.0, 187500.0, 187500.0, 187500.0, -145289.95994209766, 187500.0, 187500.0, -187500.02235174447, 0.066, -0.004, 0.98, 192.0, 0.0, 0.0, 0.0, 0.0, 0.0, 0.0, 0.0, 0.0, 0.0, 1.708992643886868E9, 0.0, 2024-02-26 19:10:43.886
165.0, 187500.0, 187500.0, 187500.0, 187500.0, -145333.72465774117, 187500.0, 187500.0, -187500.02235174447, 0.066, -0.004, 0.98, 192.0, 0.0, 0.0, 0.0, 0.0, 0.0, 0.0, 0.0, 0.0, 0.0, 1.708992643889871E9, 0.0, 2024-02-26 19:10:43.889
166.0, 187500.0, 187500.0, 187500.0, 187500.0, -145391.8168415805, 187500.0, 187500.0, -187500.02235174447, 0.066, -0.004, 0.98, 192.0, 0.0, 0.0, 0.0, 0.0, 0.0, 0.0, 0.0, 0.0, 0.0, 1.708992643894872E9, 0.0, 2024-02-26 19:10:43.894
167.0, 187500.0, 187500.0, 187500.0, 187500.0, -145358.87037025337, 187500.0, 187500.0, -187500.02235174447, 0.066, -0.004, 0.98, 192.0, 2.0, 16.0, 255.0, 224.0, 30.0, 160.0, 0.0, 0.0, 0.0, 1.708992643897867E9, 0.0, 2024-02-26 19:10:43.897
168.0, 187500.0, 187500.0, 187500.0, 187500.0, -145314.77037844306, 187500.0, 187500.0, -187500.02235174447, 0.066, -0.004, 0.98, 192.0, 0.0, 0.0, 0.0, 0.0, 0.0, 0.0, 0.0, 0.0, 0.0, 1.708992643900867E9, 0.0, 2024-02-26 19:10:43.900
169.0, 187500.0, 187500.0, 187500.0, 187500.0, -145346.1522276583, 187500.0, 187500.0, -187500.02235174447, 0.066, -0.004, 0.98, 192.0, 0.0, 0.0, 0.0, 0.0, 0.0, 0.0, 0.0, 0.0, 0.0, 1.708992643905877E9, 0.0, 2024-02-26 19:10:43.905
170.0, 187500.0, 187500.0, 187500.0, 187500.0, -145397.24831548313, 187500.0, 187500.0, -187500.02235174447, 0.066, -0.004, 0.98, 192.0, 0.0, 0.0, 0.0, 0.0, 0.0, 0.0, 0.0, 0.0, 0.0, 1.708992643909868E9, 0.0, 2024-02-26 19:10:43.909
171.0, 187500.0, 187500.0, 187500.0, 187500.0, -145373.19783844924, 187500.0, 187500.0, -187500.02235174447, 0.066, -0.004, 0.98, 192.0, 0.0, 0.0, 0.0, 0.0, 0.0, 0.0, 0.0, 0.0, 0.0, 1.708992643913864E9, 0.0, 2024-02-26 19:10:43.913
172.0, 187500.0, 187500.0, 187500.0, 187500.0, -145296.95603811217, 187500.0, 187500.0, -187500.02235174447, 0.066, -0.004, 0.98, 192.0, 0.0, 0.0, 0.0, 0.0, 0.0, 0.0, 0.0, 0.0, 0.0, 1.708992643917863E9, 0.0, 2024-02-26 19:10:43.917
173.0, 187500.0, 187500.0, 187500.0, 187500.0, -145313.51868075356, 187500.0, 187500.0, -187500.02235174447, 0.066, -0.004, 0.98, 192.0, 0.0, 0.0, 0.0, 0.0, 0.0, 0.0, 0.0, 0.0, 0.0, 1.708992643922867E9, 0.0, 2024-02-26 19:10:43.922
174.0, 187500.0, 187500.0, 187500.0, 187500.0, -145387.83823106746, 187500.0, 187500.0, -187500.02235174447, 0.066, -0.004, 0.98, 192.0, 0.0, 0.0, 0.0, 0.0, 0.0, 0.0, 0.0, 0.0, 0.0, 1.708992643925861E9, 0.0, 2024-02-26 19:10:43.925
175.0, 187500.0, 187500.0, 187500.0, 187500.0, -145393.18029799228, 187500.0, 187500.0, -187500.02235174447, 0.066, -0.004, 0.98, 192.0, 0.0, 0.0, 0.0, 0.0, 0.0, 0.0, 0.0, 0.0, 0.0, 1.708992643928887E9, 0.0, 2024-02-26 19:10:43.928
176.0, 187500.0, 187500.0, 187500.0, 187500.0, -145322.3476198134, 187500.0, 187500.0, -187500.02235174447, 0.066, -0.004, 0.98, 192.0, 0.0, 0.0, 0.0, 0.0, 0.0, 0.0, 0.0, 0.0, 0.0, 1.708992643933884E9, 0.0, 2024-02-26 19:10:43.933
177.0, 187500.0, 187500.0, 187500.0, 187500.0, -145358.5127423421, 187500.0, 187500.0, -187500.02235174447, 0.064, -0.002, 0.98, 192.0, 2.0, 0.0, 255.0, 240.0, 30.0, 160.0, 0.0, 0.0, 0.0, 1.708992643937871E9, 0.0, 2024-02-26 19:10:43.937
178.0, 187500.0, 187500.0, 187500.0, 187500.0, -145431.35707752194, 187500.0, 187500.0, -187500.02235174447, 0.064, -0.002, 0.98, 192.0, 0.0, 0.0, 0.0, 0.0, 0.0, 0.0, 0.0, 0.0, 0.0, 1.708992643941872E9, 0.0, 2024-02-26 19:10:43.941
179.0, 187500.0, 187500.0, 187500.0, 187500.0, -145473.11013616444, 187500.0, 187500.0, -187500.02235174447, 0.064, -0.002, 0.98, 192.0, 0.0, 0.0, 0.0, 0.0, 0.0, 0.0, 0.0, 0.0, 0.0, 1.708992643945862E9, 0.0, 2024-02-26 19:10:43.945
180.0, 187500.0, 187500.0, 187500.0, 187500.0, -145420.71764716122, 187500.0, 187500.0, -187500.02235174447, 0.064, -0.002, 0.98, 192.0, 0.0, 0.0, 0.0, 0.0, 0.0, 0.0, 0.0, 0.0, 0.0, 1.708992643950867E9, 0.0, 2024-02-26 19:10:43.950
181.0, 187500.0, 187500.0, 187500.0, 187500.0, -145463.11890639292, 187500.0, 187500.0, -187500.02235174447, 0.064, -0.002, 0.98, 192.0, 0.0, 0.0, 0.0, 0.0, 0.0, 0.0, 0.0, 0.0, 0.0, 1.708992643953859E9, 0.0, 2024-02-26 19:10:43.953
182.0, 187500.0, 187500.0, 187500.0, 187500.0, -145558.27028253916, 187500.0, 187500.0, -187500.02235174447, 0.064, -0.002, 0.98, 192.0, 0.0, 0.0, 0.0, 0.0, 0.0, 0.0, 0.0, 0.0, 0.0, 1.708992643956869E9, 0.0, 2024-02-26 19:10:43.956
183.0, 187500.0, 187500.0, 187500.0, 187500.0, -145628.14183570645, 187500.0, 187500.0, -187500.02235174447, 0.064, -0.002, 0.98, 192.0, 0.0, 0.0, 0.0, 0.0, 0.0, 0.0, 0.0, 0.0, 0.0, 1.708992643961886E9, 0.0, 2024-02-26 19:10:43.961
184.0, 187500.0, 187500.0, 187500.0, 187500.0, -145592.6696172559, 187500.0, 187500.0, -187500.02235174447, 0.064, -0.002, 0.98, 192.0, 0.0, 0.0, 0.0, 0.0, 0.0, 0.0, 0.0, 0.0, 0.0, 1.708992643965893E9, 0.0, 2024-02-26 19:10:43.965
185.0, 187500.0, 187500.0, 187500.0, 187500.0, -145566.00398612072, 187500.0, 187500.0, -187500.02235174447, 0.064, -0.002, 0.98, 192.0, 0.0, 0.0, 0.0, 0.0, 0.0, 0.0, 0.0, 0.0, 0.0, 1.708992643969893E9, 0.0, 2024-02-26 19:10:43.969
186.0, 187500.0, 187500.0, 187500.0, 187500.0, -145633.93093752037, 187500.0, 187500.0, -187500.02235174447, 0.064, 0.0, 0.982, 192.0, 2.0, 0.0, 0.0, 0.0, 30.0, 176.0, 0.0, 0.0, 0.0, 1.708992643973897E9, 0.0, 2024-02-26 19:10:43.973
187.0, 187500.0, 187500.0, 187500.0, 187500.0, -145700.62854297503, 187500.0, 187500.0, -187500.02235174447, 0.064, 0.0, 0.982, 192.0, 0.0, 0.0, 0.0, 0.0, 0.0, 0.0, 0.0, 0.0, 0.0, 1.708992643977918E9, 0.0, 2024-02-26 19:10:43.977
188.0, 187500.0, 187500.0, 187500.0, 187500.0, -145682.92596136642, 187500.0, 187500.0, -187500.02235174447, 0.064, 0.0, 0.982, 192.0, 0.0, 0.0, 0.0, 0.0, 0.0, 0.0, 0.0, 0.0, 0.0, 1.708992643981891E9, 0.0, 2024-02-26 19:10:43.981
189.0, 187500.0, 187500.0, 187500.0, 187500.0, -145671.05718506066, 187500.0, 187500.0, -187500.02235174447, 0.064, 0.0, 0.982, 192.0, 0.0, 0.0, 0.0, 0.0, 0.0, 0.0, 0.0, 0.0, 0.0, 1.708992643984888E9, 0.0, 2024-02-26 19:10:43.984
190.0, 187500.0, 187500.0, 187500.0, 187500.0, -145706.59645874458, 187500.0, 187500.0, -187500.02235174447, 0.064, 0.0, 0.982, 192.0, 0.0, 0.0, 0.0, 0.0, 0.0, 0.0, 0.0, 0.0, 0.0, 1.70899264399089E9, 0.0, 2024-02-26 19:10:43.990
191.0, 187500.0, 187500.0, 187500.0, 187500.0, -145759.68185182594, 187500.0, 187500.0, -187500.02235174447, 0.064, 0.0, 0.982, 192.0, 0.0, 0.0, 0.0, 0.0, 0.0, 0.0, 0.0, 0.0, 0.0, 1.708992643993943E9, 0.0, 2024-02-26 19:10:43.993
192.0, 187500.0, 187500.0, 187500.0, 187500.0, -145742.22513940636, 187500.0, 187500.0, -187500.02235174447, 0.064, 0.0, 0.982, 192.0, 0.0, 0.0, 0.0, 0.0, 0.0, 0.0, 0.0, 0.0, 0.0, 1.708992643997953E9, 0.0, 2024-02-26 19:10:43.997
193.0, 187500.0, 187500.0, 187500.0, 187500.0, -145694.7947376722, 187500.0, 187500.0, -187500.02235174447, 0.064, 0.0, 0.982, 192.0, 0.0, 0.0, 0.0, 0.0, 0.0, 0.0, 0.0, 0.0, 0.0, 1.708992644001935E9, 0.0, 2024-02-26 19:10:44.001
194.0, 187500.0, 187500.0, 187500.0, 187500.0, -145721.66153450747, 187500.0, 187500.0, -187500.02235174447, 0.064, 0.0, 0.982, 192.0, 0.0, 0.0, 0.0, 0.0, 0.0, 0.0, 0.0, 0.0, 0.0, 1.708992644005936E9, 0.0, 2024-02-26 19:10:44.005
195.0, 187500.0, 187500.0, 187500.0, 187500.0, -145777.29502645673, 187500.0, 187500.0, -187500.02235174447, 0.064, 0.0, 0.982, 192.0, 0.0, 0.0, 0.0, 0.0, 0.0, 0.0, 0.0, 0.0, 0.0, 1.708992644008932E9, 0.0, 2024-02-26 19:10:44.008
196.0, 187500.0, 187500.0, 187500.0, 187500.0, -145747.7460202868, 187500.0, 187500.0, -187500.02235174447, 0.066, -0.002, 0.986, 192.0, 2.0, 16.0, 255.0, 240.0, 30.0, 208.0, 0.0, 0.0, 0.0, 1.708992644012924E9, 0.0, 2024-02-26 19:10:44.012
197.0, 187500.0, 187500.0, 187500.0, 187500.0, -145651.09707726206, 187500.0, 187500.0, -187500.02235174447, 0.066, -0.002, 0.986, 192.0, 0.0, 0.0, 0.0, 0.0, 0.0, 0.0, 0.0, 0.0, 0.0, 1.708992644017936E9, 0.0, 2024-02-26 19:10:44.017
198.0, 187500.0, 187500.0, 187500.0, 187500.0, -145650.71709760634, 187500.0, 187500.0, -187500.02235174447, 0.066, -0.002, 0.986, 192.0, 0.0, 0.0, 0.0, 0.0, 0.0, 0.0, 0.0, 0.0, 0.0, 1.708992644022929E9, 0.0, 2024-02-26 19:10:44.022
199.0, 187500.0, 187500.0, 187500.0, 187500.0, -145696.06878710614, 187500.0, 187500.0, -187500.02235174447, 0.066, -0.002, 0.986, 192.0, 0.0, 0.0, 0.0, 0.0, 0.0, 0.0, 0.0, 0.0, 0.0, 1.70899264402596E9, 0.0, 2024-02-26 19:10:44.025
200.0, 187500.0, 187500.0, 187500.0, 187500.0, -145719.40400831748, 187500.0, 187500.0, -187500.02235174447, 0.066, -0.002, 0.986, 192.0, 0.0, 0.0, 0.0, 0.0, 0.0, 0.0, 0.0, 0.0, 0.0, 1.708992644031947E9, 0.0, 2024-02-26 19:10:44.031
201.0, 187500.0, 187500.0, 187500.0, 187500.0, -145615.5801553226, 187500.0, 187500.0, -187500.02235174447, 0.066, -0.002, 0.986, 192.0, 0.0, 0.0, 0.0, 0.0, 0.0, 0.0, 0.0, 0.0, 0.0, 1.708992644034946E9, 0.0, 2024-02-26 19:10:44.034
202.0, 187500.0, 187500.0, 187500.0, 187500.0, -145578.67742522687, 187500.0, 187500.0, -187500.02235174447, 0.066, -0.002, 0.986, 192.0, 0.0, 0.0, 0.0, 0.0, 0.0, 0.0, 0.0, 0.0, 0.0, 1.708992644037927E9, 0.0, 2024-02-26 19:10:44.037
203.0, 187500.0, 187500.0, 187500.0, 187500.0, -145625.124350205, 187500.0, 187500.0, -187500.02235174447, 0.066, -0.002, 0.986, 192.0, 0.0, 0.0, 0.0, 0.0, 0.0, 0.0, 0.0, 0.0, 0.0, 1.70899264404197E9, 0.0, 2024-02-26 19:10:44.041
204.0, 187500.0, 187500.0, 187500.0, 187500.0, -145636.68020208838, 187500.0, 187500.0, -187500.02235174447, 0.066, -0.002, 0.986, 192.0, 0.0, 0.0, 0.0, 0.0, 0.0, 0.0, 0.0, 0.0, 0.0, 1.708992644044986E9, 0.0, 2024-02-26 19:10:44.044
205.0, 187500.0, 187500.0, 187500.0, 187500.0, -145528.72127636927, 187500.0, 187500.0, -187500.02235174447, 0.066, -0.002, 0.986, 192.0, 0.0, 0.0, 0.0, 0.0, 0.0, 0.0, 0.0, 0.0, 0.0, 1.708992644049997E9, 0.0, 2024-02-26 19:10:44.049
206.0, 187500.0, 187500.0, 187500.0, 187500.0, -145508.38118891494, 187500.0, 187500.0, -187500.02235174447, 0.066, -0.006, 0.986, 192.0, 2.0, 16.0, 255.0, 208.0, 30.0, 208.0, 0.0, 0.0, 0.0, 1.708992644053969E9, 0.0, 2024-02-26 19:10:44.053
207.0, 187500.0, 187500.0, 187500.0, 187500.0, -145555.94570111582, 187500.0, 187500.0, -187500.02235174447, 0.066, -0.006, 0.986, 192.0, 0.0, 0.0, 0.0, 0.0, 0.0, 0.0, 0.0, 0.0, 0.0, 1.708992644057968E9, 0.0, 2024-02-26 19:10:44.057
208.0, 187500.0, 187500.0, 187500.0, 187500.0, -145570.85431466752, 187500.0, 187500.0, -187500.02235174447, 0.066, -0.006, 0.986, 192.0, 0.0, 0.0, 0.0, 0.0, 0.0, 0.0, 0.0, 0.0, 0.0, 1.708992644061009E9, 0.0, 2024-02-26 19:10:44.061
209.0, 187500.0, 187500.0, 187500.0, 187500.0, -145491.72913929573, 187500.0, 187500.0, -187500.02235174447, 0.066, -0.006, 0.986, 192.0, 0.0, 0.0, 0.0, 0.0, 0.0, 0.0, 0.0, 0.0, 0.0, 1.708992644064995E9, 0.0, 2024-02-26 19:10:44.064
210.0, 187500.0, 187500.0, 187500.0, 187500.0, -145408.35713247742, 187500.0, 187500.0, -187500.02235174447, 0.066, -0.006, 0.986, 192.0, 0.0, 0.0, 0.0, 0.0, 0.0, 0.0, 0.0, 0.0, 0.0, 1.708992644068991E9, 0.0, 2024-02-26 19:10:44.068
211.0, 187500.0, 187500.0, 187500.0, 187500.0, -145452.56888301, 187500.0, 187500.0, -187500.02235174447, 0.066, -0.006, 0.986, 192.0, 0.0, 0.0, 0.0, 0.0, 0.0, 0.0, 0.0, 0.0, 0.0, 1.708992644074022E9, 0.0, 2024-02-26 19:10:44.074
212.0, 187500.0, 187500.0, 187500.0, 187500.0, -145499.06051147706, 187500.0, 187500.0, -187500.02235174447, 0.066, -0.006, 0.986, 192.0, 0.0, 0.0, 0.0, 0.0, 0.0, 0.0, 0.0, 0.0, 0.0, 1.70899264407803E9, 0.0, 2024-02-26 19:10:44.078
213.0, 187500.0, 187500.0, 187500.0, 187500.0, -145456.70395573427, 187500.0, 187500.0, -187500.02235174447, 0.066, -0.006, 0.986, 192.0, 0.0, 0.0, 0.0, 0.0, 0.0, 0.0, 0.0, 0.0, 0.0, 1.708992644082017E9, 0.0, 2024-02-26 19:10:44.082
214.0, 187500.0, 187500.0, 187500.0, 187500.0, -145389.0228735236, 187500.0, 187500.0, -187500.02235174447, 0.066, -0.006, 0.986, 192.0, 0.0, 0.0, 0.0, 0.0, 0.0, 0.0, 0.0, 0.0, 0.0, 1.708992644086024E9, 0.0, 2024-02-26 19:10:44.086
215.0, 187500.0, 187500.0, 187500.0, 187500.0, -145408.15596677733, 187500.0, 187500.0, -187500.02235174447, 0.066, -0.006, 0.986, 192.0, 0.0, 0.0, 0.0, 0.0, 0.0, 0.0, 0.0, 0.0, 0.0, 1.708992644089049E9, 0.0, 2024-02-26 19:10:44.089
216.0, 187500.0, 187500.0, 187500.0, 187500.0, -145458.69326099078, 187500.0, 187500.0, -187500.02235174447, 0.066, -0.002, 0.982, 192.0, 2.0, 16.0, 255.0, 240.0, 30.0, 176.0, 0.0, 0.0, 0.0, 1.708992644093041E9, 0.0, 2024-02-26 19:10:44.093
217.0, 187500.0, 187500.0, 187500.0, 187500.0, -145410.30173424503, 187500.0, 187500.0, -187500.02235174447, 0.066, -0.002, 0.982, 192.0, 0.0, 0.0, 0.0, 0.0, 0.0, 0.0, 0.0, 0.0, 0.0, 1.708992644097036E9, 0.0, 2024-02-26 19:10:44.097
218.0, 187500.0, 187500.0, 187500.0, 187500.0, -145345.7051927692, 187500.0, 187500.0, -187500.02235174447, 0.066, -0.002, 0.982, 192.0, 0.0, 0.0, 0.0, 0.0, 0.0, 0.0, 0.0, 0.0, 0.0, 1.708992644103035E9, 0.0, 2024-02-26 19:10:44.103
219.0, 187500.0, 187500.0, 187500.0, 187500.0, -145424.89742337435, 187500.0, 187500.0, -187500.02235174447, 0.066, -0.002, 0.982, 192.0, 0.0, 0.0, 0.0, 0.0, 0.0, 0.0, 0.0, 0.0, 0.0, 1.70899264410601E9, 0.0, 2024-02-26 19:10:44.106
220.0, 187500.0, 187500.0, 187500.0, 187500.0, -145429.74775192115, 187500.0, 187500.0, -187500.02235174447, 0.066, -0.002, 0.982, 192.0, 0.0, 0.0, 0.0, 0.0, 0.0, 0.0, 0.0, 0.0, 0.0, 1.708992644110016E9, 0.0, 2024-02-26 19:10:44.110
221.0, 187500.0, 187500.0, 187500.0, 187500.0, -145371.45440238173, 187500.0, 187500.0, -187500.02235174447, 0.066, -0.002, 0.982, 192.0, 0.0, 0.0, 0.0, 0.0, 0.0, 0.0, 0.0, 0.0, 0.0, 1.708992644114054E9, 0.0, 2024-02-26 19:10:44.114
222.0, 187500.0, 187500.0, 187500.0, 187500.0, -145276.32537797993, 187500.0, 187500.0, -187500.02235174447, 0.066, -0.002, 0.982, 192.0, 0.0, 0.0, 0.0, 0.0, 0.0, 0.0, 0.0, 0.0, 0.0, 1.708992644117032E9, 0.0, 2024-02-26 19:10:44.117
223.0, 187500.0, 187500.0, 187500.0, 187500.0, -145272.90556107828, 187500.0, 187500.0, -187500.02235174447, 0.066, -0.002, 0.982, 192.0, 0.0, 0.0, 0.0, 0.0, 0.0, 0.0, 0.0, 0.0, 0.0, 1.708992644121032E9, 0.0, 2024-02-26 19:10:44.121
224.0, 187500.0, 187500.0, 187500.0, 187500.0, -145317.27377382206, 187500.0, 187500.0, -187500.02235174447, 0.066, -0.002, 0.982, 192.0, 0.0, 0.0, 0.0, 0.0, 0.0, 0.0, 0.0, 0.0, 0.0, 1.708992644125039E9, 0.0, 2024-02-26 19:10:44.125
225.0, 187500.0, 187500.0, 187500.0, 187500.0, -145338.0161926766, 187500.0, 187500.0, -187500.02235174447, 0.066, -0.002, 0.982, 192.0, 0.0, 0.0, 0.0, 0.0, 0.0, 0.0, 0.0, 0.0, 0.0, 1.708992644129044E9, 0.0, 2024-02-26 19:10:44.129
226.0, 187500.0, 187500.0, 187500.0, 187500.0, -145271.2515319886, 187500.0, 187500.0, -187500.02235174447, 0.064, 0.002, 0.98, 192.0, 2.0, 0.0, 0.0, 16.0, 30.0, 160.0, 0.0, 0.0, 0.0, 1.708992644134074E9, 0.0, 2024-02-26 19:10:44.134
227.0, 187500.0, 187500.0, 187500.0, 187500.0, -145282.82973561643, 187500.0, 187500.0, -187500.02235174447, 0.064, 0.002, 0.98, 192.0, 0.0, 0.0, 0.0, 0.0, 0.0, 0.0, 0.0, 0.0, 0.0, 1.708992644138082E9, 0.0, 2024-02-26 19:10:44.138
228.0, 187500.0, 187500.0, 187500.0, 187500.0, -145373.39900414934, 187500.0, 187500.0, -187500.02235174447, 0.064, 0.002, 0.98, 192.0, 0.0, 0.0, 0.0, 0.0, 0.0, 0.0, 0.0, 0.0, 0.0, 1.708992644141072E9, 0.0, 2024-02-26 19:10:44.141
229.0, 187500.0, 187500.0, 187500.0, 187500.0, -145410.21232726722, 187500.0, 187500.0, -187500.02235174447, 0.064, 0.002, 0.98, 192.0, 0.0, 0.0, 0.0, 0.0, 0.0, 0.0, 0.0, 0.0, 0.0, 1.708992644145078E9, 0.0, 2024-02-26 19:10:44.145
230.0, 187500.0, 187500.0, 187500.0, 187500.0, -145353.10362018392, 187500.0, 187500.0, -187500.02235174447, 0.064, 0.002, 0.98, 192.0, 0.0, 0.0, 0.0, 0.0, 0.0, 0.0, 0.0, 0.0, 0.0, 1.708992644149071E9, 0.0, 2024-02-26 19:10:44.149
231.0, 187500.0, 187500.0, 187500.0, 187500.0, -145328.78492221652, 187500.0, 187500.0, -187500.02235174447, 0.064, 0.002, 0.98, 192.0, 0.0, 0.0, 0.0, 0.0, 0.0, 0.0, 0.0, 0.0, 0.0, 1.70899264415308E9, 0.0, 2024-02-26 19:10:44.153
232.0, 187500.0, 187500.0, 187500.0, 187500.0, -145377.66818734028, 187500.0, 187500.0, -187500.02235174447, 0.064, 0.002, 0.98, 192.0, 0.0, 0.0, 0.0, 0.0, 0.0, 0.0, 0.0, 0.0, 0.0, 1.708992644157056E9, 0.0, 2024-02-26 19:10:44.157
233.0, 187500.0, 187500.0, 187500.0, 187500.0, -145428.49605423165, 187500.0, 187500.0, -187500.02235174447, 0.064, 0.002, 0.98, 192.0, 0.0, 0.0, 0.0, 0.0, 0.0, 0.0, 0.0, 0.0, 0.0, 1.708992644163067E9, 0.0, 2024-02-26 19:10:44.163
234.0, 187500.0, 187500.0, 187500.0, 187500.0, -145367.22992267966, 187500.0, 187500.0, -187500.02235174447, 0.064, 0.002, 0.98, 192.0, 0.0, 0.0, 0.0, 0.0, 0.0, 0.0, 0.0, 0.0, 0.0, 1.708992644166101E9, 0.0, 2024-02-26 19:10:44.166
235.0, 187500.0, 187500.0, 187500.0, 187500.0, -145339.73727699963, 187500.0, 187500.0, -187500.02235174447, 0.064, 0.002, 0.98, 192.0, 0.0, 0.0, 0.0, 0.0, 0.0, 0.0, 0.0, 0.0, 0.0, 1.708992644170128E9, 0.0, 2024-02-26 19:10:44.170
236.0, 187500.0, 187500.0, 187500.0, 187500.0, -145413.40862672433, 187500.0, 187500.0, -187500.02235174447, 0.066, 0.004, 0.98, 192.0, 2.0, 16.0, 0.0, 32.0, 30.0, 160.0, 0.0, 0.0, 0.0, 1.708992644173087E9, 0.0, 2024-02-26 19:10:44.173
237.0, 187500.0, 187500.0, 187500.0, 187500.0, -145508.91763078186, 187500.0, 187500.0, -187500.02235174447, 0.066, 0.004, 0.98, 192.0, 0.0, 0.0, 0.0, 0.0, 0.0, 0.0, 0.0, 0.0, 0.0, 1.70899264417708E9, 0.0, 2024-02-26 19:10:44.177
238.0, 187500.0, 187500.0, 187500.0, 187500.0, -145461.75544998117, 187500.0, 187500.0, -187500.02235174447, 0.066, 0.004, 0.98, 192.0, 0.0, 0.0, 0.0, 0.0, 0.0, 0.0, 0.0, 0.0, 0.0, 1.708992644181122E9, 0.0, 2024-02-26 19:10:44.181
239.0, 187500.0, 187500.0, 187500.0, 187500.0, -145423.73513266267, 187500.0, 187500.0, -187500.02235174447, 0.066, 0.004, 0.98, 192.0, 0.0, 0.0, 0.0, 0.0, 0.0, 0.0, 0.0, 0.0, 0.0, 1.708992644185127E9, 0.0, 2024-02-26 19:10:44.185
240.0, 187500.0, 187500.0, 187500.0, 187500.0, -145488.1975636718, 187500.0, 187500.0, -187500.02235174447, 0.066, 0.004, 0.98, 192.0, 0.0, 0.0, 0.0, 0.0, 0.0, 0.0, 0.0, 0.0, 0.0, 1.708992644190128E9, 0.0, 2024-02-26 19:10:44.190
241.0, 187500.0, 187500.0, 187500.0, 187500.0, -145577.17985834836, 187500.0, 187500.0, -187500.02235174447, 0.066, 0.004, 0.98, 192.0, 0.0, 0.0, 0.0, 0.0, 0.0, 0.0, 0.0, 0.0, 0.0, 1.70899264419414E9, 0.0, 2024-02-26 19:10:44.194
242.0, 187500.0, 187500.0, 187500.0, 187500.0, -145567.47920125476, 187500.0, 187500.0, -187500.02235174447, 0.066, 0.004, 0.98, 192.0, 0.0, 0.0, 0.0, 0.0, 0.0, 0.0, 0.0, 0.0, 0.0, 1.708992644197131E9, 0.0, 2024-02-26 19:10:44.197
243.0, 187500.0, 187500.0, 187500.0, 187500.0, -145492.8914300074, 187500.0, 187500.0, -187500.02235174447, 0.066, 0.004, 0.98, 192.0, 0.0, 0.0, 0.0, 0.0, 0.0, 0.0, 0.0, 0.0, 0.0, 1.708992644201122E9, 0.0, 2024-02-26 19:10:44.201
244.0, 187500.0, 187500.0, 187500.0, 187500.0, -145526.41904669037, 187500.0, 187500.0, -187500.02235174447, 0.066, 0.004, 0.98, 192.0, 0.0, 0.0, 0.0, 0.0, 0.0, 0.0, 0.0, 0.0, 0.0, 1.708992644205128E9, 0.0, 2024-02-26 19:10:44.205
245.0, 187500.0, 187500.0, 187500.0, 187500.0, -145611.869765743, 187500.0, 187500.0, -187500.02235174447, 0.066, 0.004, 0.98, 192.0, 0.0, 0.0, 0.0, 0.0, 0.0, 0.0, 0.0, 0.0, 0.0, 1.708992644209138E9, 0.0, 2024-02-26 19:10:44.209
246.0, 187500.0, 187500.0, 187500.0, 187500.0, -145576.57636124807, 187500.0, 187500.0, -187500.02235174447, 0.066, -0.002, 0.982, 192.0, 2.0, 16.0, 255.0, 240.0, 30.0, 176.0, 0.0, 0.0, 0.0, 1.708992644213136E9, 0.0, 2024-02-26 19:10:44.213
247.0, 187500.0, 187500.0, 187500.0, 187500.0, -145460.01201391366, 187500.0, 187500.0, -187500.02235174447, 0.066, -0.002, 0.982, 192.0, 0.0, 0.0, 0.0, 0.0, 0.0, 0.0, 0.0, 0.0, 0.0, 1.708992644218119E9, 0.0, 2024-02-26 19:10:44.218
248.0, 187500.0, 187500.0, 187500.0, 187500.0, -145463.7894587266, 187500.0, 187500.0, -187500.02235174447, 0.066, -0.002, 0.982, 192.0, 0.0, 0.0, 0.0, 0.0, 0.0, 0.0, 0.0, 0.0, 0.0, 1.708992644222189E9, 0.0, 2024-02-26 19:10:44.222
249.0, 187500.0, 187500.0, 187500.0, 187500.0, -145508.53765112613, 187500.0, 187500.0, -187500.02235174447, 0.066, -0.002, 0.982, 192.0, 0.0, 0.0, 0.0, 0.0, 0.0, 0.0, 0.0, 0.0, 0.0, 1.708992644225155E9, 0.0, 2024-02-26 19:10:44.225
250.0, 187500.0, 187500.0, 187500.0, 187500.0, -145496.26654342015, 187500.0, 187500.0, -187500.02235174447, 0.066, -0.002, 0.982, 192.0, 0.0, 0.0, 0.0, 0.0, 0.0, 0.0, 0.0, 0.0, 0.0, 1.708992644229154E9, 0.0, 2024-02-26 19:10:44.229
251.0, 187500.0, 187500.0, 187500.0, 187500.0, -145405.20553650922, 187500.0, 187500.0, -187500.02235174447, 0.066, -0.002, 0.982, 192.0, 0.0, 0.0, 0.0, 0.0, 0.0, 0.0, 0.0, 0.0, 0.0, 1.708992644233169E9, 0.0, 2024-02-26 19:10:44.233
252.0, 187500.0, 187500.0, 187500.0, 187500.0, -145383.92667578778, 187500.0, 187500.0, -187500.02235174447, 0.066, -0.002, 0.982, 192.0, 0.0, 0.0, 0.0, 0.0, 0.0, 0.0, 0.0, 0.0, 0.0, 1.708992644237158E9, 0.0, 2024-02-26 19:10:44.237
253.0, 187500.0, 187500.0, 187500.0, 187500.0, -145430.99944961065, 187500.0, 187500.0, -187500.02235174447, 0.066, -0.002, 0.982, 192.0, 0.0, 0.0, 0.0, 0.0, 0.0, 0.0, 0.0, 0.0, 0.0, 1.70899264424116E9, 0.0, 2024-02-26 19:10:44.241
254.0, 187500.0, 187500.0, 187500.0, 187500.0, -145445.37162129543, 187500.0, 187500.0, -187500.02235174447, 0.066, -0.002, 0.982, 192.0, 0.0, 0.0, 0.0, 0.0, 0.0, 0.0, 0.0, 0.0, 0.0, 1.708992644246169E9, 0.0, 2024-02-26 19:10:44.246
255.0, 187500.0, 187500.0, 187500.0, 187500.0, -145383.27847519857, 187500.0, 187500.0, -187500.02235174447, 0.066, -0.002, 0.982, 192.0, 0.0, 0.0, 0.0, 0.0, 0.0, 0.0, 0.0, 0.0, 0.0, 1.708992644250167E9, 0.0, 2024-02-26 19:10:44.250
0.0, 187500.0, 187500.0, 187500.0, 187500.0, -145345.72754451365, 187500.0, 187500.0, -187500.02235174447, 0.062, -0.002, 0.984, 192.0, 1.0, 240.0, 255.0, 240.0, 30.0, 192.0, 0.0, 0.0, 0.0, 1.708992644253175E9, 0.0, 2024-02-26 19:10:44.253
1.0, 187500.0, 187500.0, 187500.0, 187500.0, -145386.4524229112, 187500.0, 187500.0, -187500.02235174447, 0.062, -0.002, 0.984, 192.0, 0.0, 0.0, 0.0, 0.0, 0.0, 0.0, 0.0, 0.0, 0.0, 1.708992644257184E9, 0.0, 2024-02-26 19:10:44.257
