%OpenBCI Raw EXG Data
%Number of channels = 8
%Sample Rate = 250 Hz
%Board = OpenBCI_GUI$BoardCytonSerial
Sample Index, EXG Channel 0, EXG Channel 1, EXG Channel 2, EXG Channel 3, EXG Channel 4, EXG Channel 5, EXG Channel 6, EXG Channel 7, Accel Channel 0, Accel Channel 1, Accel Channel 2, Other, Other, Other, Other, Other, Other, Other, Analog Channel 0, Analog Channel 1, Analog Channel 2, Timestamp, Other, Timestamp (Formatted)
97.0, 187500.0, -185725.338545482, 187500.0, -62053.15882601248, 187500.0, 187500.0, 187500.0, 187500.0, 0.0, 0.0, 0.0, 192.0, 0.0, 0.0, 0.0, 0.0, 0.0, 0.0, 0.0, 0.0, 0.0, 1.711045927275877E9, 0.0, 2024-03-21 14:32:07.275
98.0, 187500.0, -185717.87306283394, 187500.0, -61751.052647954544, 187500.0, 187500.0, 187500.0, 187500.0, 0.0, 0.0, 0.0, 192.0, 0.0, 0.0, 0.0, 0.0, 0.0, 0.0, 0.0, 0.0, 0.0, 1.711045927275888E9, 0.0, 2024-03-21 14:32:07.275
0.0, 0.0, 0.0, 0.0, 0.0, 0.0, 0.0, 0.0, 0.0, 0.07200000000000001, 0.022, 0.976, 192.0, 2.0, 64.0, 0.0, 176.0, 30.0, 128.0, 0.0, 0.0, 0.0, 1.71104592734906E9, 0.0, 2024-03-21 14:32:07.349
1.0, 187500.0, -185635.75275370514, 187500.0, -63786.558960266, 187500.0, 187500.0, 187500.0, 187500.0, 0.07200000000000001, 0.022, 0.976, 192.0, 0.0, 0.0, 0.0, 0.0, 0.0, 0.0, 0.0, 0.0, 0.0, 1.711045927366057E9, 0.0, 2024-03-21 14:32:07.366
2.0, 187500.0, -185613.5127679721, 187500.0, -63777.662965972784, 187500.0, 187500.0, 187500.0, 187500.0, 0.07200000000000001, 0.022, 0.976, 192.0, 0.0, 0.0, 0.0, 0.0, 0.0, 0.0, 0.0, 0.0, 0.0, 1.711045927369057E9, 0.0, 2024-03-21 14:32:07.369
3.0, 187500.0, -185597.8665468534, 187500.0, -63810.96706521119, 187500.0, 187500.0, 187500.0, 187500.0, 0.07200000000000001, 0.022, 0.976, 192.0, 0.0, 0.0, 0.0, 0.0, 0.0, 0.0, 0.0, 0.0, 0.0, 1.711045927372061E9, 0.0, 2024-03-21 14:32:07.372
4.0, 187500.0, -185632.53410250356, 187500.0, -63817.784347270055, 187500.0, 187500.0, 187500.0, 187500.0, 0.07200000000000001, 0.022, 0.976, 192.0, 0.0, 0.0, 0.0, 0.0, 0.0, 0.0, 0.0, 0.0, 0.0, 1.711045927375109E9, 0.0, 2024-03-21 14:32:07.375
5.0, 187500.0, -185650.03551841207, 187500.0, -63794.091498147434, 187500.0, 187500.0, 187500.0, 187500.0, 0.07200000000000001, 0.022, 0.976, 192.0, 0.0, 0.0, 0.0, 0.0, 0.0, 0.0, 0.0, 0.0, 0.0, 1.711045927380122E9, 0.0, 2024-03-21 14:32:07.380
6.0, 187500.0, -185642.74884971965, 187500.0, -63773.41613452628, 187500.0, 187500.0, 187500.0, 187500.0, 0.07200000000000001, 0.022, 0.976, 192.0, 0.0, 0.0, 0.0, 0.0, 0.0, 0.0, 0.0, 0.0, 0.0, 1.711045927384099E9, 0.0, 2024-03-21 14:32:07.384
7.0, 187500.0, -185633.38346879286, 187500.0, -63794.73969873664, 187500.0, 187500.0, 187500.0, 187500.0, 0.07200000000000001, 0.022, 0.976, 192.0, 0.0, 0.0, 0.0, 0.0, 0.0, 0.0, 0.0, 0.0, 0.0, 1.711045927388104E9, 0.0, 2024-03-21 14:32:07.388
8.0, 187500.0, -185622.90050064333, 187500.0, -63827.574411341484, 187500.0, 187500.0, 187500.0, 187500.0, 0.066, 0.024, 0.976, 192.0, 2.0, 16.0, 0.0, 192.0, 30.0, 128.0, 0.0, 0.0, 0.0, 1.711045927392111E9, 0.0, 2024-03-21 14:32:07.392
9.0, 187500.0, -185642.23475959717, 187500.0, -63829.13903345336, 187500.0, 187500.0, 187500.0, 187500.0, 0.066, 0.024, 0.976, 192.0, 0.0, 0.0, 0.0, 0.0, 0.0, 0.0, 0.0, 0.0, 0.0, 1.711045927395111E9, 0.0, 2024-03-21 14:32:07.395
10.0, 187500.0, -185646.68275674377, 187500.0, -63812.08465243396, 187500.0, 187500.0, 187500.0, 187500.0, 0.066, 0.024, 0.976, 192.0, 0.0, 0.0, 0.0, 0.0, 0.0, 0.0, 0.0, 0.0, 0.0, 1.71104592739911E9, 0.0, 2024-03-21 14:32:07.399
11.0, 187500.0, -185634.88103567137, 187500.0, -63813.470460590186, 187500.0, 187500.0, 187500.0, 187500.0, 0.066, 0.024, 0.976, 192.0, 0.0, 0.0, 0.0, 0.0, 0.0, 0.0, 0.0, 0.0, 0.0, 1.711045927403106E9, 0.0, 2024-03-21 14:32:07.403
12.0, 187500.0, -185635.68569847176, 187500.0, -63855.35762969943, 187500.0, 187500.0, 187500.0, 187500.0, 0.066, 0.024, 0.976, 192.0, 0.0, 0.0, 0.0, 0.0, 0.0, 0.0, 0.0, 0.0, 0.0, 1.711045927408107E9, 0.0, 2024-03-21 14:32:07.408
13.0, 187500.0, -185638.21144559523, 187500.0, -63851.915461053315, 187500.0, 187500.0, 187500.0, 187500.0, 0.066, 0.024, 0.976, 192.0, 0.0, 0.0, 0.0, 0.0, 0.0, 0.0, 0.0, 0.0, 0.0, 1.711045927412109E9, 0.0, 2024-03-21 14:32:07.412
14.0, 187500.0, -185642.2124078527, 187500.0, -63819.68424554876, 187500.0, 187500.0, 187500.0, 187500.0, 0.066, 0.024, 0.976, 192.0, 0.0, 0.0, 0.0, 0.0, 0.0, 0.0, 0.0, 0.0, 0.0, 1.711045927416099E9, 0.0, 2024-03-21 14:32:07.416
15.0, 187500.0, -185615.23385229515, 187500.0, -63806.22849538666, 187500.0, 187500.0, 187500.0, 187500.0, 0.066, 0.024, 0.976, 192.0, 0.0, 0.0, 0.0, 0.0, 0.0, 0.0, 0.0, 0.0, 0.0, 1.711045927419098E9, 0.0, 2024-03-21 14:32:07.419
16.0, 187500.0, -185627.0132216231, 187500.0, -63830.56954509849, 187500.0, 187500.0, 187500.0, 187500.0, 0.066, 0.024, 0.976, 192.0, 0.0, 0.0, 0.0, 0.0, 0.0, 0.0, 0.0, 0.0, 0.0, 1.711045927423111E9, 0.0, 2024-03-21 14:32:07.423
17.0, 187500.0, -185642.1677043638, 187500.0, -63835.28576317857, 187500.0, 187500.0, 187500.0, 187500.0, 0.062, 0.024, 0.976, 192.0, 1.0, 240.0, 0.0, 192.0, 30.0, 128.0, 0.0, 0.0, 0.0, 1.711045927427108E9, 0.0, 2024-03-21 14:32:07.427
18.0, 187500.0, -185653.05300391355, 187500.0, -63803.81450698549, 187500.0, 187500.0, 187500.0, 187500.0, 0.062, 0.024, 0.976, 192.0, 0.0, 0.0, 0.0, 0.0, 0.0, 0.0, 0.0, 0.0, 0.0, 1.71104592743111E9, 0.0, 2024-03-21 14:32:07.431
19.0, 187500.0, -185638.50201827314, 187500.0, -63782.17801835275, 187500.0, 187500.0, 187500.0, 187500.0, 0.062, 0.024, 0.976, 192.0, 0.0, 0.0, 0.0, 0.0, 0.0, 0.0, 0.0, 0.0, 0.0, 1.711045927435154E9, 0.0, 2024-03-21 14:32:07.435
20.0, 187500.0, -185650.72842249018, 187500.0, -63803.881562218856, 187500.0, 187500.0, 187500.0, 187500.0, 0.062, 0.024, 0.976, 192.0, 0.0, 0.0, 0.0, 0.0, 0.0, 0.0, 0.0, 0.0, 0.0, 1.711045927440136E9, 0.0, 2024-03-21 14:32:07.440
21.0, 187500.0, -185696.77301606812, 187500.0, -63816.55500132502, 187500.0, 187500.0, 187500.0, 187500.0, 0.062, 0.024, 0.976, 192.0, 0.0, 0.0, 0.0, 0.0, 0.0, 0.0, 0.0, 0.0, 0.0, 1.711045927444133E9, 0.0, 2024-03-21 14:32:07.444
22.0, 187500.0, -185613.24454703863, 187500.0, -63816.13031818037, 187500.0, 187500.0, 187500.0, 187500.0, 0.062, 0.024, 0.976, 192.0, 0.0, 0.0, 0.0, 0.0, 0.0, 0.0, 0.0, 0.0, 0.0, 1.711045927447153E9, 0.0, 2024-03-21 14:32:07.447
23.0, 187500.0, -185635.61864323838, 187500.0, -63780.52398926306, 187500.0, 187500.0, 187500.0, 187500.0, 0.062, 0.024, 0.976, 192.0, 0.0, 0.0, 0.0, 0.0, 0.0, 0.0, 0.0, 0.0, 0.0, 1.711045927451152E9, 0.0, 2024-03-21 14:32:07.451
24.0, 187500.0, -185617.49137848514, 187500.0, -63792.057489402, 187500.0, 187500.0, 187500.0, 187500.0, 0.062, 0.024, 0.976, 192.0, 0.0, 0.0, 0.0, 0.0, 0.0, 0.0, 0.0, 0.0, 0.0, 1.711045927455152E9, 0.0, 2024-03-21 14:32:07.455
25.0, 187500.0, -185619.14540757483, 187500.0, -63791.96808242418, 187500.0, 187500.0, 187500.0, 187500.0, 0.062, 0.024, 0.976, 192.0, 0.0, 0.0, 0.0, 0.0, 0.0, 0.0, 0.0, 0.0, 0.0, 1.711045927459152E9, 0.0, 2024-03-21 14:32:07.459
26.0, 187500.0, -185618.89953838583, 187500.0, -63772.969099637165, 187500.0, 187500.0, 187500.0, 187500.0, 0.062, 0.024, 0.976, 192.0, 0.0, 0.0, 0.0, 0.0, 0.0, 0.0, 0.0, 0.0, 0.0, 1.711045927463154E9, 0.0, 2024-03-21 14:32:07.463
27.0, 187500.0, -185627.86258791242, 187500.0, -63756.831140140435, 187500.0, 187500.0, 187500.0, 187500.0, 0.066, 0.024, 0.974, 192.0, 2.0, 16.0, 0.0, 192.0, 30.0, 112.0, 0.0, 0.0, 0.0, 1.711045927468181E9, 0.0, 2024-03-21 14:32:07.468
28.0, 187500.0, -185622.22994830966, 187500.0, -63780.7028032187, 187500.0, 187500.0, 187500.0, 187500.0, 0.066, 0.024, 0.974, 192.0, 0.0, 0.0, 0.0, 0.0, 0.0, 0.0, 0.0, 0.0, 0.0, 1.711045927472184E9, 0.0, 2024-03-21 14:32:07.472
29.0, 187500.0, -185625.13567508885, 187500.0, -63816.55500132502, 187500.0, 187500.0, 187500.0, 187500.0, 0.066, 0.024, 0.974, 192.0, 0.0, 0.0, 0.0, 0.0, 0.0, 0.0, 0.0, 0.0, 0.0, 1.711045927475181E9, 0.0, 2024-03-21 14:32:07.475
30.0, 187500.0, -185637.51854151709, 187500.0, -63823.037007217055, 187500.0, 187500.0, 187500.0, 187500.0, 0.066, 0.024, 0.974, 192.0, 0.0, 0.0, 0.0, 0.0, 0.0, 0.0, 0.0, 0.0, 0.0, 1.711045927479184E9, 0.0, 2024-03-21 14:32:07.479
31.0, 187500.0, -185635.41747753829, 187500.0, -63828.53553635306, 187500.0, 187500.0, 187500.0, 187500.0, 0.066, 0.024, 0.974, 192.0, 0.0, 0.0, 0.0, 0.0, 0.0, 0.0, 0.0, 0.0, 0.0, 1.711045927483182E9, 0.0, 2024-03-21 14:32:07.483
32.0, 187500.0, -185626.74500068964, 187500.0, -63872.255548507645, 187500.0, 187500.0, 187500.0, 187500.0, 0.066, 0.024, 0.974, 192.0, 0.0, 0.0, 0.0, 0.0, 0.0, 0.0, 0.0, 0.0, 0.0, 1.711045927487184E9, 0.0, 2024-03-21 14:32:07.487
33.0, 187500.0, -185620.82178840897, 187500.0, -63931.28650561411, 187500.0, 187500.0, 187500.0, 187500.0, 0.066, 0.024, 0.974, 192.0, 0.0, 0.0, 0.0, 0.0, 0.0, 0.0, 0.0, 0.0, 0.0, 1.711045927491182E9, 0.0, 2024-03-21 14:32:07.491
34.0, 187500.0, -185642.54768401955, 187500.0, -63959.069723972054, 187500.0, 187500.0, 187500.0, 187500.0, 0.066, 0.024, 0.974, 192.0, 0.0, 0.0, 0.0, 0.0, 0.0, 0.0, 0.0, 0.0, 0.0, 1.711045927496184E9, 0.0, 2024-03-21 14:32:07.496
35.0, 187500.0, -185647.75564047764, 187500.0, -63961.21549143976, 187500.0, 187500.0, 187500.0, 187500.0, 0.066, 0.024, 0.974, 192.0, 0.0, 0.0, 0.0, 0.0, 0.0, 0.0, 0.0, 0.0, 0.0, 1.711045927500181E9, 0.0, 2024-03-21 14:32:07.500
36.0, 187500.0, -185627.57201523447, 187500.0, -63982.15907599439, 187500.0, 187500.0, 187500.0, 187500.0, 0.066, 0.024, 0.974, 192.0, 0.0, 0.0, 0.0, 0.0, 0.0, 0.0, 0.0, 0.0, 0.0, 1.711045927503183E9, 0.0, 2024-03-21 14:32:07.503
37.0, 187500.0, -185628.6672507128, 187500.0, -64029.92475389538, 187500.0, 187500.0, 187500.0, 187500.0, 0.068, 0.02, 0.976, 192.0, 2.0, 32.0, 0.0, 160.0, 30.0, 128.0, 0.0, 0.0, 0.0, 1.711045927507227E9, 0.0, 2024-03-21 14:32:07.507
38.0, 187500.0, -185641.20657935223, 187500.0, -64050.73422798327, 187500.0, 187500.0, 187500.0, 187500.0, 0.068, 0.02, 0.976, 192.0, 0.0, 0.0, 0.0, 0.0, 0.0, 0.0, 0.0, 0.0, 0.0, 1.711045927511229E9, 0.0, 2024-03-21 14:32:07.511
39.0, 187500.0, -185655.60110278145, 187500.0, -64012.66920717588, 187500.0, 187500.0, 187500.0, 187500.0, 0.068, 0.02, 0.976, 192.0, 0.0, 0.0, 0.0, 0.0, 0.0, 0.0, 0.0, 0.0, 0.0, 1.711045927515235E9, 0.0, 2024-03-21 14:32:07.515
40.0, 187500.0, -185604.4156079788, 187500.0, -64040.810053445115, 187500.0, 187500.0, 187500.0, 187500.0, 0.068, 0.02, 0.976, 192.0, 0.0, 0.0, 0.0, 0.0, 0.0, 0.0, 0.0, 0.0, 0.0, 1.711045927519231E9, 0.0, 2024-03-21 14:32:07.519
41.0, 187500.0, -185615.34561101743, 187500.0, -64062.51359731121, 187500.0, 187500.0, 187500.0, 187500.0, 0.068, 0.02, 0.976, 192.0, 0.0, 0.0, 0.0, 0.0, 0.0, 0.0, 0.0, 0.0, 0.0, 1.711045927524229E9, 0.0, 2024-03-21 14:32:07.524
42.0, 187500.0, -185629.56132049102, 187500.0, -64066.11222816852, 187500.0, 187500.0, 187500.0, 187500.0, 0.068, 0.02, 0.976, 192.0, 0.0, 0.0, 0.0, 0.0, 0.0, 0.0, 0.0, 0.0, 0.0, 1.711045927528232E9, 0.0, 2024-03-21 14:32:07.528
43.0, 187500.0, -185634.23283508216, 187500.0, -64046.84502444804, 187500.0, 187500.0, 187500.0, 187500.0, 0.068, 0.02, 0.976, 192.0, 0.0, 0.0, 0.0, 0.0, 0.0, 0.0, 0.0, 0.0, 0.0, 1.711045927531237E9, 0.0, 2024-03-21 14:32:07.531
44.0, 187500.0, -185619.52538723056, 187500.0, -64054.89165245195, 187500.0, 187500.0, 187500.0, 187500.0, 0.068, 0.02, 0.976, 192.0, 0.0, 0.0, 0.0, 0.0, 0.0, 0.0, 0.0, 0.0, 0.0, 1.711045927535233E9, 0.0, 2024-03-21 14:32:07.535
45.0, 187500.0, -185633.56228274852, 187500.0, -64097.94111227288, 187500.0, 187500.0, 187500.0, 187500.0, 0.068, 0.02, 0.976, 192.0, 0.0, 0.0, 0.0, 0.0, 0.0, 0.0, 0.0, 0.0, 0.0, 1.711045927539232E9, 0.0, 2024-03-21 14:32:07.539
46.0, 187500.0, -185648.13562013337, 187500.0, -64119.376435205515, 187500.0, 187500.0, 187500.0, 187500.0, 0.068, 0.02, 0.976, 192.0, 0.0, 0.0, 0.0, 0.0, 0.0, 0.0, 0.0, 0.0, 0.0, 1.711045927543232E9, 0.0, 2024-03-21 14:32:07.543
47.0, 187500.0, -185654.23764636967, 187500.0, -64107.55236238866, 187500.0, 187500.0, 187500.0, 187500.0, 0.07, 0.024, 0.974, 192.0, 2.0, 48.0, 0.0, 192.0, 30.0, 112.0, 0.0, 0.0, 0.0, 1.711045927547269E9, 0.0, 2024-03-21 14:32:07.547
48.0, 187500.0, -185647.19684686625, 187500.0, -64101.07035649662, 187500.0, 187500.0, 187500.0, 187500.0, 0.07, 0.024, 0.974, 192.0, 0.0, 0.0, 0.0, 0.0, 0.0, 0.0, 0.0, 0.0, 0.0, 1.71104592755228E9, 0.0, 2024-03-21 14:32:07.552
49.0, 187500.0, -185628.4660850127, 187500.0, -64135.71556040234, 187500.0, 187500.0, 187500.0, 187500.0, 0.07, 0.024, 0.974, 192.0, 0.0, 0.0, 0.0, 0.0, 0.0, 0.0, 0.0, 0.0, 0.0, 1.711045927555269E9, 0.0, 2024-03-21 14:32:07.555
50.0, 187500.0, -185629.47191351317, 187500.0, -64160.481293258825, 187500.0, 187500.0, 187500.0, 187500.0, 0.07, 0.024, 0.974, 192.0, 0.0, 0.0, 0.0, 0.0, 0.0, 0.0, 0.0, 0.0, 0.0, 1.711045927558282E9, 0.0, 2024-03-21 14:32:07.558
51.0, 187500.0, -185651.04134691256, 187500.0, -64144.41038899546, 187500.0, 187500.0, 187500.0, 187500.0, 0.07, 0.024, 0.974, 192.0, 0.0, 0.0, 0.0, 0.0, 0.0, 0.0, 0.0, 0.0, 0.0, 1.71104592756327E9, 0.0, 2024-03-21 14:32:07.563
52.0, 187500.0, -185645.02872765408, 187500.0, -64126.93132483141, 187500.0, 187500.0, 187500.0, 187500.0, 0.07, 0.024, 0.974, 192.0, 0.0, 0.0, 0.0, 0.0, 0.0, 0.0, 0.0, 0.0, 0.0, 1.711045927567265E9, 0.0, 2024-03-21 14:32:07.567
53.0, 187500.0, -185628.17551233477, 187500.0, -64143.7398366618, 187500.0, 187500.0, 187500.0, 187500.0, 0.07, 0.024, 0.974, 192.0, 0.0, 0.0, 0.0, 0.0, 0.0, 0.0, 0.0, 0.0, 0.0, 1.711045927571267E9, 0.0, 2024-03-21 14:32:07.571
54.0, 187500.0, -185630.63420422486, 187500.0, -64173.13238062053, 187500.0, 187500.0, 187500.0, 187500.0, 0.07, 0.024, 0.974, 192.0, 0.0, 0.0, 0.0, 0.0, 0.0, 0.0, 0.0, 0.0, 0.0, 1.711045927575309E9, 0.0, 2024-03-21 14:32:07.575
55.0, 187500.0, -185650.99664342366, 187500.0, -64165.53278750573, 187500.0, 187500.0, 187500.0, 187500.0, 0.07, 0.024, 0.974, 192.0, 0.0, 0.0, 0.0, 0.0, 0.0, 0.0, 0.0, 0.0, 0.0, 1.711045927580318E9, 0.0, 2024-03-21 14:32:07.580
56.0, 187500.0, -185630.38833503585, 187500.0, -64137.57075519214, 187500.0, 187500.0, 187500.0, 187500.0, 0.07, 0.024, 0.974, 192.0, 0.0, 0.0, 0.0, 0.0, 0.0, 0.0, 0.0, 0.0, 0.0, 1.711045927583308E9, 0.0, 2024-03-21 14:32:07.583
57.0, 187500.0, -185629.22604432417, 187500.0, -64145.77384540723, 187500.0, 187500.0, 187500.0, 187500.0, 0.068, 0.02, 0.978, 192.0, 2.0, 32.0, 0.0, 160.0, 30.0, 144.0, 0.0, 0.0, 0.0, 1.711045927587319E9, 0.0, 2024-03-21 14:32:07.587
58.0, 187500.0, -185675.4718036022, 187500.0, -64172.90886317597, 187500.0, 187500.0, 187500.0, 187500.0, 0.068, 0.02, 0.978, 192.0, 0.0, 0.0, 0.0, 0.0, 0.0, 0.0, 0.0, 0.0, 0.0, 1.711045927591311E9, 0.0, 2024-03-21 14:32:07.591
59.0, 187500.0, -185673.41544311232, 187500.0, -64184.17414238145, 187500.0, 187500.0, 187500.0, 187500.0, 0.068, 0.02, 0.978, 192.0, 0.0, 0.0, 0.0, 0.0, 0.0, 0.0, 0.0, 0.0, 0.0, 1.711045927595314E9, 0.0, 2024-03-21 14:32:07.595
60.0, 187500.0, -185635.70805021623, 187500.0, -64149.03720009771, 187500.0, 187500.0, 187500.0, 187500.0, 0.068, 0.02, 0.978, 192.0, 0.0, 0.0, 0.0, 0.0, 0.0, 0.0, 0.0, 0.0, 0.0, 1.711045927599315E9, 0.0, 2024-03-21 14:32:07.599
61.0, 187500.0, -185612.39518074933, 187500.0, -64148.12077857504, 187500.0, 187500.0, 187500.0, 187500.0, 0.068, 0.02, 0.978, 192.0, 0.0, 0.0, 0.0, 0.0, 0.0, 0.0, 0.0, 0.0, 0.0, 1.711045927603309E9, 0.0, 2024-03-21 14:32:07.603
62.0, 187500.0, -185639.88782642936, 187500.0, -64175.81458995517, 187500.0, 187500.0, 187500.0, 187500.0, 0.068, 0.02, 0.978, 192.0, 0.0, 0.0, 0.0, 0.0, 0.0, 0.0, 0.0, 0.0, 0.0, 1.711045927607307E9, 0.0, 2024-03-21 14:32:07.607
63.0, 187500.0, -185642.1677043638, 187500.0, -64167.99147939581, 187500.0, 187500.0, 187500.0, 187500.0, 0.068, 0.02, 0.978, 192.0, 0.0, 0.0, 0.0, 0.0, 0.0, 0.0, 0.0, 0.0, 0.0, 1.711045927611315E9, 0.0, 2024-03-21 14:32:07.611
64.0, 187500.0, -185640.9160066743, 187500.0, -64138.196604036886, 187500.0, 187500.0, 187500.0, 187500.0, 0.068, 0.02, 0.978, 192.0, 0.0, 0.0, 0.0, 0.0, 0.0, 0.0, 0.0, 0.0, 0.0, 1.711045927614325E9, 0.0, 2024-03-21 14:32:07.614
65.0, 187500.0, -185623.12401808787, 187500.0, -64131.26756325574, 187500.0, 187500.0, 187500.0, 187500.0, 0.068, 0.02, 0.978, 192.0, 0.0, 0.0, 0.0, 0.0, 0.0, 0.0, 0.0, 0.0, 0.0, 1.711045927619375E9, 0.0, 2024-03-21 14:32:07.619
66.0, 187500.0, -185630.70125945823, 187500.0, -64156.03329611222, 187500.0, 187500.0, 187500.0, 187500.0, 0.068, 0.02, 0.978, 192.0, 0.0, 0.0, 0.0, 0.0, 0.0, 0.0, 0.0, 0.0, 0.0, 1.711045927623356E9, 0.0, 2024-03-21 14:32:07.623
67.0, 187500.0, -185643.4641055422, 187500.0, -64176.485142288824, 187500.0, 187500.0, 187500.0, 187500.0, 0.07, 0.026000000000000002, 0.978, 192.0, 2.0, 48.0, 0.0, 208.0, 30.0, 144.0, 0.0, 0.0, 0.0, 1.711045927627354E9, 0.0, 2024-03-21 14:32:07.627
68.0, 187500.0, -185651.7118992462, 187500.0, -64159.18489208042, 187500.0, 187500.0, 187500.0, 187500.0, 0.07, 0.026000000000000002, 0.978, 192.0, 0.0, 0.0, 0.0, 0.0, 0.0, 0.0, 0.0, 0.0, 0.0, 1.711045927631356E9, 0.0, 2024-03-21 14:32:07.631
69.0, 187500.0, -185639.10551537343, 187500.0, -64150.11008383156, 187500.0, 187500.0, 187500.0, 187500.0, 0.07, 0.026000000000000002, 0.978, 192.0, 0.0, 0.0, 0.0, 0.0, 0.0, 0.0, 0.0, 0.0, 0.0, 1.711045927635356E9, 0.0, 2024-03-21 14:32:07.635
70.0, 187500.0, -185628.48843675715, 187500.0, -64181.402526068996, 187500.0, 187500.0, 187500.0, 187500.0, 0.07, 0.026000000000000002, 0.978, 192.0, 0.0, 0.0, 0.0, 0.0, 0.0, 0.0, 0.0, 0.0, 0.0, 1.711045927639363E9, 0.0, 2024-03-21 14:32:07.639
71.0, 187500.0, -185641.3630415634, 187500.0, -64198.032223943745, 187500.0, 187500.0, 187500.0, 187500.0, 0.07, 0.026000000000000002, 0.978, 192.0, 0.0, 0.0, 0.0, 0.0, 0.0, 0.0, 0.0, 0.0, 0.0, 1.711045927642348E9, 0.0, 2024-03-21 14:32:07.642
72.0, 187500.0, -185654.79643998106, 187500.0, -64171.50070327529, 187500.0, 187500.0, 187500.0, 187500.0, 0.07, 0.026000000000000002, 0.978, 192.0, 0.0, 0.0, 0.0, 0.0, 0.0, 0.0, 0.0, 0.0, 0.0, 1.711045927647362E9, 0.0, 2024-03-21 14:32:07.647
73.0, 187500.0, -185643.73232647567, 187500.0, -64142.0411040832, 187500.0, 187500.0, 187500.0, 187500.0, 0.07, 0.026000000000000002, 0.978, 192.0, 0.0, 0.0, 0.0, 0.0, 0.0, 0.0, 0.0, 0.0, 0.0, 1.711045927651358E9, 0.0, 2024-03-21 14:32:07.651
74.0, 187500.0, -185628.39902977934, 187500.0, -64144.768016906746, 187500.0, 187500.0, 187500.0, 187500.0, 0.07, 0.026000000000000002, 0.978, 192.0, 0.0, 0.0, 0.0, 0.0, 0.0, 0.0, 0.0, 0.0, 0.0, 1.711045927655364E9, 0.0, 2024-03-21 14:32:07.655
75.0, 187500.0, -185632.69056471475, 187500.0, -64118.01297879374, 187500.0, 187500.0, 187500.0, 187500.0, 0.07, 0.026000000000000002, 0.978, 192.0, 0.0, 0.0, 0.0, 0.0, 0.0, 0.0, 0.0, 0.0, 0.0, 1.711045927659402E9, 0.0, 2024-03-21 14:32:07.659
76.0, 187500.0, -185648.7167654892, 187500.0, -64071.29783288215, 187500.0, 187500.0, 187500.0, 187500.0, 0.07, 0.026000000000000002, 0.978, 192.0, 0.0, 0.0, 0.0, 0.0, 0.0, 0.0, 0.0, 0.0, 0.0, 1.711045927663408E9, 0.0, 2024-03-21 14:32:07.663
77.0, 187500.0, -185625.85093091143, 187500.0, -64053.86347220701, 187500.0, 187500.0, 187500.0, 187500.0, 0.068, 0.02, 0.97, 192.0, 2.0, 32.0, 0.0, 160.0, 30.0, 80.0, 0.0, 0.0, 0.0, 1.711045927667414E9, 0.0, 2024-03-21 14:32:07.667
78.0, 187500.0, -185581.5944768899, 187500.0, -64080.01501321972, 187500.0, 187500.0, 187500.0, 187500.0, 0.068, 0.02, 0.97, 192.0, 0.0, 0.0, 0.0, 0.0, 0.0, 0.0, 0.0, 0.0, 0.0, 1.711045927670426E9, 0.0, 2024-03-21 14:32:07.670
79.0, 187500.0, -185645.07343114298, 187500.0, -64092.7778593037, 187500.0, 187500.0, 187500.0, 187500.0, 0.068, 0.02, 0.97, 192.0, 0.0, 0.0, 0.0, 0.0, 0.0, 0.0, 0.0, 0.0, 0.0, 1.711045927674415E9, 0.0, 2024-03-21 14:32:07.674
80.0, 187500.0, -185642.83825669746, 187500.0, -64068.570920058606, 187500.0, 187500.0, 187500.0, 187500.0, 0.068, 0.02, 0.97, 192.0, 0.0, 0.0, 0.0, 0.0, 0.0, 0.0, 0.0, 0.0, 0.0, 1.711045927679429E9, 0.0, 2024-03-21 14:32:07.679
81.0, 187500.0, -185634.47870427117, 187500.0, -64035.57974524257, 187500.0, 187500.0, 187500.0, 187500.0, 0.068, 0.02, 0.97, 192.0, 0.0, 0.0, 0.0, 0.0, 0.0, 0.0, 0.0, 0.0, 0.0, 1.711045927683415E9, 0.0, 2024-03-21 14:32:07.683
82.0, 187500.0, -185637.87616942837, 187500.0, -64049.54958552714, 187500.0, 187500.0, 187500.0, 187500.0, 0.068, 0.02, 0.97, 192.0, 0.0, 0.0, 0.0, 0.0, 0.0, 0.0, 0.0, 0.0, 0.0, 1.711045927687419E9, 0.0, 2024-03-21 14:32:07.687
83.0, 187500.0, -185632.26588157009, 187500.0, -64079.56797833061, 187500.0, 187500.0, 187500.0, 187500.0, 0.068, 0.02, 0.97, 192.0, 0.0, 0.0, 0.0, 0.0, 0.0, 0.0, 0.0, 0.0, 0.0, 1.711045927691415E9, 0.0, 2024-03-21 14:32:07.691
84.0, 187500.0, -185638.14439036185, 187500.0, -64085.22296967781, 187500.0, 187500.0, 187500.0, 187500.0, 0.068, 0.02, 0.97, 192.0, 0.0, 0.0, 0.0, 0.0, 0.0, 0.0, 0.0, 0.0, 0.0, 1.711045927694411E9, 0.0, 2024-03-21 14:32:07.694
85.0, 187500.0, -185653.9247219473, 187500.0, -64067.520388069206, 187500.0, 187500.0, 187500.0, 187500.0, 0.068, 0.02, 0.97, 192.0, 0.0, 0.0, 0.0, 0.0, 0.0, 0.0, 0.0, 0.0, 0.0, 1.711045927698413E9, 0.0, 2024-03-21 14:32:07.698
86.0, 187500.0, -185634.50105601564, 187500.0, -64079.34446088606, 187500.0, 187500.0, 187500.0, 187500.0, 0.068, 0.02, 0.97, 192.0, 0.0, 0.0, 0.0, 0.0, 0.0, 0.0, 0.0, 0.0, 0.0, 1.711045927703412E9, 0.0, 2024-03-21 14:32:07.703
87.0, 187500.0, -185636.9150444168, 187500.0, -64120.89635382847, 187500.0, 187500.0, 187500.0, 187500.0, 0.068, 0.022, 0.976, 192.0, 2.0, 32.0, 0.0, 176.0, 30.0, 128.0, 0.0, 0.0, 0.0, 1.711045927707457E9, 0.0, 2024-03-21 14:32:07.707
88.0, 187500.0, -185636.55741650553, 187500.0, -64128.02656030972, 187500.0, 187500.0, 187500.0, 187500.0, 0.068, 0.022, 0.976, 192.0, 0.0, 0.0, 0.0, 0.0, 0.0, 0.0, 0.0, 0.0, 0.0, 1.711045927711455E9, 0.0, 2024-03-21 14:32:07.711
89.0, 187500.0, -185626.96851813418, 187500.0, -64103.082013497595, 187500.0, 187500.0, 187500.0, 187500.0, 0.068, 0.022, 0.976, 192.0, 0.0, 0.0, 0.0, 0.0, 0.0, 0.0, 0.0, 0.0, 0.0, 1.711045927715457E9, 0.0, 2024-03-21 14:32:07.715
90.0, 187500.0, -185633.74109670415, 187500.0, -64115.12960375901, 187500.0, 187500.0, 187500.0, 187500.0, 0.068, 0.022, 0.976, 192.0, 0.0, 0.0, 0.0, 0.0, 0.0, 0.0, 0.0, 0.0, 0.0, 1.711045927718454E9, 0.0, 2024-03-21 14:32:07.718
91.0, 187500.0, -185643.73232647567, 187500.0, -64150.22184255384, 187500.0, 187500.0, 187500.0, 187500.0, 0.068, 0.022, 0.976, 192.0, 0.0, 0.0, 0.0, 0.0, 0.0, 0.0, 0.0, 0.0, 0.0, 1.711045927722458E9, 0.0, 2024-03-21 14:32:07.722
92.0, 187500.0, -185645.47576254318, 187500.0, -64161.263604314765, 187500.0, 187500.0, 187500.0, 187500.0, 0.068, 0.022, 0.976, 192.0, 0.0, 0.0, 0.0, 0.0, 0.0, 0.0, 0.0, 0.0, 0.0, 1.711045927726454E9, 0.0, 2024-03-21 14:32:07.726
93.0, 187500.0, -185636.19978859424, 187500.0, -64131.826356867125, 187500.0, 187500.0, 187500.0, 187500.0, 0.068, 0.022, 0.976, 192.0, 0.0, 0.0, 0.0, 0.0, 0.0, 0.0, 0.0, 0.0, 0.0, 1.711045927731457E9, 0.0, 2024-03-21 14:32:07.731
94.0, 187500.0, -185580.2533722226, 187500.0, -64130.440548710896, 187500.0, 187500.0, 187500.0, 187500.0, 0.068, 0.022, 0.976, 192.0, 0.0, 0.0, 0.0, 0.0, 0.0, 0.0, 0.0, 0.0, 0.0, 1.711045927735455E9, 0.0, 2024-03-21 14:32:07.735
95.0, 187500.0, -185621.42528550926, 187500.0, -64166.31509856166, 187500.0, 187500.0, 187500.0, 187500.0, 0.068, 0.022, 0.976, 192.0, 0.0, 0.0, 0.0, 0.0, 0.0, 0.0, 0.0, 0.0, 0.0, 1.711045927739456E9, 0.0, 2024-03-21 14:32:07.739
96.0, 187500.0, -185629.65072746883, 187500.0, -64178.65326150099, 187500.0, 187500.0, 187500.0, 187500.0, 0.068, 0.022, 0.976, 192.0, 0.0, 0.0, 0.0, 0.0, 0.0, 0.0, 0.0, 0.0, 0.0, 1.711045927743497E9, 0.0, 2024-03-21 14:32:07.743
97.0, 187500.0, -185615.323259273, 187500.0, -64141.59406919409, 187500.0, 187500.0, 187500.0, 187500.0, 0.066, 0.022, 0.974, 192.0, 2.0, 16.0, 0.0, 176.0, 30.0, 112.0, 0.0, 0.0, 0.0, 1.711045927746499E9, 0.0, 2024-03-21 14:32:07.746
98.0, 187500.0, -185594.53613692953, 187500.0, -64112.939132802385, 187500.0, 187500.0, 187500.0, 187500.0, 0.066, 0.022, 0.974, 192.0, 0.0, 0.0, 0.0, 0.0, 0.0, 0.0, 0.0, 0.0, 0.0, 1.711045927750516E9, 0.0, 2024-03-21 14:32:07.750
99.0, 187500.0, -185623.92868088826, 187500.0, -64100.7797838187, 187500.0, 187500.0, 187500.0, 187500.0, 0.066, 0.022, 0.974, 192.0, 0.0, 0.0, 0.0, 0.0, 0.0, 0.0, 0.0, 0.0, 0.0, 1.711045927754502E9, 0.0, 2024-03-21 14:32:07.754
100.0, 187500.0, -185629.02487862407, 187500.0, -64110.45808916785, 187500.0, 187500.0, 187500.0, 187500.0, 0.066, 0.022, 0.974, 192.0, 0.0, 0.0, 0.0, 0.0, 0.0, 0.0, 0.0, 0.0, 0.0, 1.711045927758512E9, 0.0, 2024-03-21 14:32:07.758
101.0, 187500.0, -185645.49811428765, 187500.0, -64075.23173990628, 187500.0, 187500.0, 187500.0, 187500.0, 0.066, 0.022, 0.974, 192.0, 0.0, 0.0, 0.0, 0.0, 0.0, 0.0, 0.0, 0.0, 0.0, 1.711045927763518E9, 0.0, 2024-03-21 14:32:07.763
102.0, 187500.0, -185651.309567846, 187500.0, -64033.188108585855, 187500.0, 187500.0, 187500.0, 187500.0, 0.066, 0.022, 0.974, 192.0, 0.0, 0.0, 0.0, 0.0, 0.0, 0.0, 0.0, 0.0, 0.0, 1.711045927767502E9, 0.0, 2024-03-21 14:32:07.767
103.0, 187500.0, -185634.81398043802, 187500.0, -64029.678884706365, 187500.0, 187500.0, 187500.0, 187500.0, 0.066, 0.022, 0.974, 192.0, 0.0, 0.0, 0.0, 0.0, 0.0, 0.0, 0.0, 0.0, 0.0, 1.711045927771505E9, 0.0, 2024-03-21 14:32:07.771
104.0, 187500.0, -185631.17064609178, 187500.0, -64042.30762032362, 187500.0, 187500.0, 187500.0, 187500.0, 0.066, 0.022, 0.974, 192.0, 0.0, 0.0, 0.0, 0.0, 0.0, 0.0, 0.0, 0.0, 0.0, 1.711045927774498E9, 0.0, 2024-03-21 14:32:07.774
105.0, 187500.0, -185648.42619281128, 187500.0, -64024.53798348165, 187500.0, 187500.0, 187500.0, 187500.0, 0.066, 0.022, 0.974, 192.0, 0.0, 0.0, 0.0, 0.0, 0.0, 0.0, 0.0, 0.0, 0.0, 1.7110459277785E9, 0.0, 2024-03-21 14:32:07.778
106.0, 187500.0, -185650.70607074574, 187500.0, -63990.22805574275, 187500.0, 187500.0, 187500.0, 187500.0, 0.066, 0.026000000000000002, 0.98, 192.0, 2.0, 16.0, 0.0, 208.0, 30.0, 160.0, 0.0, 0.0, 0.0, 1.711045927782499E9, 0.0, 2024-03-21 14:32:07.782
107.0, 187500.0, -185630.29892805804, 187500.0, -63995.12308777846, 187500.0, 187500.0, 187500.0, 187500.0, 0.066, 0.026000000000000002, 0.98, 192.0, 0.0, 0.0, 0.0, 0.0, 0.0, 0.0, 0.0, 0.0, 0.0, 1.711045927786501E9, 0.0, 2024-03-21 14:32:07.786
108.0, 187500.0, -185634.29989031554, 187500.0, -64019.5088409792, 187500.0, 187500.0, 187500.0, 187500.0, 0.066, 0.026000000000000002, 0.98, 192.0, 0.0, 0.0, 0.0, 0.0, 0.0, 0.0, 0.0, 0.0, 0.0, 1.711045927791537E9, 0.0, 2024-03-21 14:32:07.791
109.0, 187500.0, -185644.84991369845, 187500.0, -64011.506916464205, 187500.0, 187500.0, 187500.0, 187500.0, 0.066, 0.026000000000000002, 0.98, 192.0, 0.0, 0.0, 0.0, 0.0, 0.0, 0.0, 0.0, 0.0, 0.0, 1.711045927795538E9, 0.0, 2024-03-21 14:32:07.795
110.0, 187500.0, -185646.6157015104, 187500.0, -63972.45841890078, 187500.0, 187500.0, 187500.0, 187500.0, 0.066, 0.026000000000000002, 0.98, 192.0, 0.0, 0.0, 0.0, 0.0, 0.0, 0.0, 0.0, 0.0, 0.0, 1.711045927800539E9, 0.0, 2024-03-21 14:32:07.800
111.0, 187500.0, -185636.66917522778, 187500.0, -63960.2990699171, 187500.0, 187500.0, 187500.0, 187500.0, 0.066, 0.026000000000000002, 0.98, 192.0, 0.0, 0.0, 0.0, 0.0, 0.0, 0.0, 0.0, 0.0, 0.0, 1.711045927803538E9, 0.0, 2024-03-21 14:32:07.803
112.0, 187500.0, -185657.8139254825, 187500.0, -63990.47392493176, 187500.0, 187500.0, 187500.0, 187500.0, 0.066, 0.026000000000000002, 0.98, 192.0, 0.0, 0.0, 0.0, 0.0, 0.0, 0.0, 0.0, 0.0, 0.0, 1.711045927807536E9, 0.0, 2024-03-21 14:32:07.807
113.0, 187500.0, -185638.34555606195, 187500.0, -63996.263026745684, 187500.0, 187500.0, 187500.0, 187500.0, 0.066, 0.026000000000000002, 0.98, 192.0, 0.0, 0.0, 0.0, 0.0, 0.0, 0.0, 0.0, 0.0, 0.0, 1.711045927811548E9, 0.0, 2024-03-21 14:32:07.811
114.0, 187500.0, -185614.5185964726, 187500.0, -63950.46430235676, 187500.0, 187500.0, 187500.0, 187500.0, 0.066, 0.026000000000000002, 0.98, 192.0, 0.0, 0.0, 0.0, 0.0, 0.0, 0.0, 0.0, 0.0, 0.0, 1.711045927814539E9, 0.0, 2024-03-21 14:32:07.814
115.0, 187500.0, -185630.92477690277, 187500.0, -63917.85310719647, 187500.0, 187500.0, 187500.0, 187500.0, 0.066, 0.026000000000000002, 0.98, 192.0, 0.0, 0.0, 0.0, 0.0, 0.0, 0.0, 0.0, 0.0, 0.0, 1.711045927818542E9, 0.0, 2024-03-21 14:32:07.818
116.0, 187500.0, -185636.2668438276, 187500.0, -63921.965828176246, 187500.0, 187500.0, 187500.0, 187500.0, 0.066, 0.022, 0.98, 192.0, 2.0, 16.0, 0.0, 176.0, 30.0, 160.0, 0.0, 0.0, 0.0, 1.711045927822556E9, 0.0, 2024-03-21 14:32:07.822
117.0, 187500.0, -185663.24539938517, 187500.0, -63913.87449668342, 187500.0, 187500.0, 187500.0, 187500.0, 0.066, 0.022, 0.98, 192.0, 0.0, 0.0, 0.0, 0.0, 0.0, 0.0, 0.0, 0.0, 0.0, 1.711045927826542E9, 0.0, 2024-03-21 14:32:07.826
118.0, 187500.0, -185642.7712014641, 187500.0, -63874.60248167545, 187500.0, 187500.0, 187500.0, 187500.0, 0.066, 0.022, 0.98, 192.0, 0.0, 0.0, 0.0, 0.0, 0.0, 0.0, 0.0, 0.0, 0.0, 1.711045927830594E9, 0.0, 2024-03-21 14:32:07.830
119.0, 187500.0, -185626.67794545626, 187500.0, -63839.55494636953, 187500.0, 187500.0, 187500.0, 187500.0, 0.066, 0.022, 0.98, 192.0, 0.0, 0.0, 0.0, 0.0, 0.0, 0.0, 0.0, 0.0, 0.0, 1.711045927835585E9, 0.0, 2024-03-21 14:32:07.835
120.0, 187500.0, -185630.92477690277, 187500.0, -63845.45580690573, 187500.0, 187500.0, 187500.0, 187500.0, 0.066, 0.022, 0.98, 192.0, 0.0, 0.0, 0.0, 0.0, 0.0, 0.0, 0.0, 0.0, 0.0, 1.711045927839586E9, 0.0, 2024-03-21 14:32:07.839
121.0, 187500.0, -185635.12690486037, 187500.0, -63853.323620954, 187500.0, 187500.0, 187500.0, 187500.0, 0.066, 0.022, 0.98, 192.0, 0.0, 0.0, 0.0, 0.0, 0.0, 0.0, 0.0, 0.0, 0.0, 1.711045927842599E9, 0.0, 2024-03-21 14:32:07.842
122.0, 187500.0, -185656.85280047095, 187500.0, -63823.75226303963, 187500.0, 187500.0, 187500.0, 187500.0, 0.066, 0.022, 0.98, 192.0, 0.0, 0.0, 0.0, 0.0, 0.0, 0.0, 0.0, 0.0, 0.0, 1.711045927846599E9, 0.0, 2024-03-21 14:32:07.846
123.0, 187500.0, -185652.7624312356, 187500.0, -63788.14593412232, 187500.0, 187500.0, 187500.0, 187500.0, 0.066, 0.022, 0.98, 192.0, 0.0, 0.0, 0.0, 0.0, 0.0, 0.0, 0.0, 0.0, 0.0, 1.711045927850598E9, 0.0, 2024-03-21 14:32:07.850
124.0, 187500.0, -185639.70901247373, 187500.0, -63810.40827159981, 187500.0, 187500.0, 187500.0, 187500.0, 0.066, 0.022, 0.98, 192.0, 0.0, 0.0, 0.0, 0.0, 0.0, 0.0, 0.0, 0.0, 0.0, 1.711045927854599E9, 0.0, 2024-03-21 14:32:07.854
125.0, 187500.0, -185627.92964314576, 187500.0, -63833.944658511246, 187500.0, 187500.0, 187500.0, 187500.0, 0.066, 0.022, 0.98, 192.0, 0.0, 0.0, 0.0, 0.0, 0.0, 0.0, 0.0, 0.0, 0.0, 1.711045927858597E9, 0.0, 2024-03-21 14:32:07.858
126.0, 187500.0, -185650.79547772356, 187500.0, -63810.43062334426, 187500.0, 187500.0, 187500.0, 187500.0, 0.068, 0.02, 0.976, 192.0, 2.0, 32.0, 0.0, 160.0, 30.0, 128.0, 0.0, 0.0, 0.0, 1.711045927863589E9, 0.0, 2024-03-21 14:32:07.863
127.0, 187500.0, -185658.2609603716, 187500.0, -63769.32576529095, 187500.0, 187500.0, 187500.0, 187500.0, 0.068, 0.02, 0.976, 192.0, 0.0, 0.0, 0.0, 0.0, 0.0, 0.0, 0.0, 0.0, 0.0, 1.711045927867588E9, 0.0, 2024-03-21 14:32:07.867
128.0, 187500.0, -185631.59532923644, 187500.0, -63774.26550081558, 187500.0, 187500.0, 187500.0, 187500.0, 0.068, 0.02, 0.976, 192.0, 0.0, 0.0, 0.0, 0.0, 0.0, 0.0, 0.0, 0.0, 0.0, 1.711045927870582E9, 0.0, 2024-03-21 14:32:07.870
129.0, 187500.0, -185623.70516344372, 187500.0, -63786.22368409916, 187500.0, 187500.0, 187500.0, 187500.0, 0.068, 0.02, 0.976, 192.0, 0.0, 0.0, 0.0, 0.0, 0.0, 0.0, 0.0, 0.0, 0.0, 1.711045927874679E9, 0.0, 2024-03-21 14:32:07.874
130.0, 187500.0, -185628.86841641288, 187500.0, -63745.81173012397, 187500.0, 187500.0, 187500.0, 187500.0, 0.068, 0.02, 0.976, 192.0, 0.0, 0.0, 0.0, 0.0, 0.0, 0.0, 0.0, 0.0, 0.0, 1.711045927878687E9, 0.0, 2024-03-21 14:32:07.878
131.0, 187500.0, -185590.7139886277, 187500.0, -63710.048938995475, 187500.0, 187500.0, 187500.0, 187500.0, 0.068, 0.02, 0.976, 192.0, 0.0, 0.0, 0.0, 0.0, 0.0, 0.0, 0.0, 0.0, 0.0, 1.711045927882692E9, 0.0, 2024-03-21 14:32:07.882
132.0, 187500.0, -185528.9337669532, 187500.0, -63730.545488660995, 187500.0, 187500.0, 187500.0, 187500.0, 0.068, 0.02, 0.976, 192.0, 0.0, 0.0, 0.0, 0.0, 0.0, 0.0, 0.0, 0.0, 0.0, 1.711045927886689E9, 0.0, 2024-03-21 14:32:07.886
133.0, 187500.0, -185614.83152089495, 187500.0, -63732.66890438425, 187500.0, 187500.0, 187500.0, 187500.0, 0.068, 0.02, 0.976, 192.0, 0.0, 0.0, 0.0, 0.0, 0.0, 0.0, 0.0, 0.0, 0.0, 1.711045927891695E9, 0.0, 2024-03-21 14:32:07.891
134.0, 187500.0, -185644.00054740914, 187500.0, -63706.27149418253, 187500.0, 187500.0, 187500.0, 187500.0, 0.068, 0.02, 0.976, 192.0, 0.0, 0.0, 0.0, 0.0, 0.0, 0.0, 0.0, 0.0, 0.0, 1.71104592789469E9, 0.0, 2024-03-21 14:32:07.894
135.0, 187500.0, -185642.07829738598, 187500.0, -63659.15401687074, 187500.0, 187500.0, 187500.0, 187500.0, 0.068, 0.02, 0.976, 192.0, 0.0, 0.0, 0.0, 0.0, 0.0, 0.0, 0.0, 0.0, 0.0, 1.71104592789869E9, 0.0, 2024-03-21 14:32:07.898
136.0, 187500.0, -185629.69543095774, 187500.0, -63632.08605433537, 187500.0, 187500.0, 187500.0, 187500.0, 0.068, 0.022, 0.974, 192.0, 2.0, 32.0, 0.0, 176.0, 30.0, 112.0, 0.0, 0.0, 0.0, 1.711045927902687E9, 0.0, 2024-03-21 14:32:07.902
137.0, 187500.0, -185630.25422456913, 187500.0, -63642.54667074045, 187500.0, 187500.0, 187500.0, 187500.0, 0.068, 0.022, 0.974, 192.0, 0.0, 0.0, 0.0, 0.0, 0.0, 0.0, 0.0, 0.0, 0.0, 1.711045927906693E9, 0.0, 2024-03-21 14:32:07.906
138.0, 187500.0, -185633.49522751514, 187500.0, -63645.56415624192, 187500.0, 187500.0, 187500.0, 187500.0, 0.068, 0.022, 0.974, 192.0, 0.0, 0.0, 0.0, 0.0, 0.0, 0.0, 0.0, 0.0, 0.0, 1.711045927910686E9, 0.0, 2024-03-21 14:32:07.910
139.0, 187500.0, -185644.29112008706, 187500.0, -63610.74013838055, 187500.0, 187500.0, 187500.0, 187500.0, 0.068, 0.022, 0.974, 192.0, 0.0, 0.0, 0.0, 0.0, 0.0, 0.0, 0.0, 0.0, 0.0, 1.711045927914688E9, 0.0, 2024-03-21 14:32:07.914
140.0, 187500.0, -185632.73526820366, 187500.0, -63588.67896660316, 187500.0, 187500.0, 187500.0, 187500.0, 0.068, 0.022, 0.974, 192.0, 0.0, 0.0, 0.0, 0.0, 0.0, 0.0, 0.0, 0.0, 0.0, 1.711045927919684E9, 0.0, 2024-03-21 14:32:07.919
141.0, 187500.0, -185619.8159599085, 187500.0, -63610.5613244249, 187500.0, 187500.0, 187500.0, 187500.0, 0.068, 0.022, 0.974, 192.0, 0.0, 0.0, 0.0, 0.0, 0.0, 0.0, 0.0, 0.0, 0.0, 1.711045927922687E9, 0.0, 2024-03-21 14:32:07.922
142.0, 187500.0, -185629.5166170021, 187500.0, -63626.29695252144, 187500.0, 187500.0, 187500.0, 187500.0, 0.068, 0.022, 0.974, 192.0, 0.0, 0.0, 0.0, 0.0, 0.0, 0.0, 0.0, 0.0, 0.0, 1.711045927926695E9, 0.0, 2024-03-21 14:32:07.926
143.0, 187500.0, -185647.37566082188, 187500.0, -63607.856763345815, 187500.0, 187500.0, 187500.0, 187500.0, 0.068, 0.022, 0.974, 192.0, 0.0, 0.0, 0.0, 0.0, 0.0, 0.0, 0.0, 0.0, 0.0, 1.711045927930693E9, 0.0, 2024-03-21 14:32:07.930
144.0, 187500.0, -185646.34748057695, 187500.0, -63588.99189102554, 187500.0, 187500.0, 187500.0, 187500.0, 0.068, 0.022, 0.974, 192.0, 0.0, 0.0, 0.0, 0.0, 0.0, 0.0, 0.0, 0.0, 0.0, 1.711045927934692E9, 0.0, 2024-03-21 14:32:07.934
145.0, 187500.0, -185622.69933494323, 187500.0, -63611.8130221144, 187500.0, 187500.0, 187500.0, 187500.0, 0.068, 0.022, 0.974, 192.0, 0.0, 0.0, 0.0, 0.0, 0.0, 0.0, 0.0, 0.0, 0.0, 1.711045927938696E9, 0.0, 2024-03-21 14:32:07.938
146.0, 187500.0, -185635.64099498285, 187500.0, -63630.74494966805, 187500.0, 187500.0, 187500.0, 187500.0, 0.07, 0.022, 0.976, 192.0, 2.0, 48.0, 0.0, 176.0, 30.0, 128.0, 0.0, 0.0, 0.0, 1.711045927942689E9, 0.0, 2024-03-21 14:32:07.942
147.0, 187500.0, -185647.77799222208, 187500.0, -63600.61479814229, 187500.0, 187500.0, 187500.0, 187500.0, 0.07, 0.022, 0.976, 192.0, 0.0, 0.0, 0.0, 0.0, 0.0, 0.0, 0.0, 0.0, 0.0, 1.711045927947694E9, 0.0, 2024-03-21 14:32:07.947
148.0, 187500.0, -185634.29989031554, 187500.0, -63551.91034697418, 187500.0, 187500.0, 187500.0, 187500.0, 0.07, 0.022, 0.976, 192.0, 0.0, 0.0, 0.0, 0.0, 0.0, 0.0, 0.0, 0.0, 0.0, 1.711045927950687E9, 0.0, 2024-03-21 14:32:07.950
149.0, 187500.0, -185673.46014660122, 187500.0, -63541.360323591274, 187500.0, 187500.0, 187500.0, 187500.0, 0.07, 0.022, 0.976, 192.0, 0.0, 0.0, 0.0, 0.0, 0.0, 0.0, 0.0, 0.0, 0.0, 1.711045927954686E9, 0.0, 2024-03-21 14:32:07.954
150.0, 187500.0, -185638.8149426955, 187500.0, -63602.58175165436, 187500.0, 187500.0, 187500.0, 187500.0, 0.07, 0.022, 0.976, 192.0, 0.0, 0.0, 0.0, 0.0, 0.0, 0.0, 0.0, 0.0, 0.0, 1.711045927958685E9, 0.0, 2024-03-21 14:32:07.958
151.0, 187500.0, -185633.94226240425, 187500.0, -63561.74511453452, 187500.0, 187500.0, 187500.0, 187500.0, 0.07, 0.022, 0.976, 192.0, 0.0, 0.0, 0.0, 0.0, 0.0, 0.0, 0.0, 0.0, 0.0, 1.711045927962687E9, 0.0, 2024-03-21 14:32:07.962
152.0, 187500.0, -185613.065733083, 187500.0, -63508.52561098643, 187500.0, 187500.0, 187500.0, 187500.0, 0.07, 0.022, 0.976, 192.0, 0.0, 0.0, 0.0, 0.0, 0.0, 0.0, 0.0, 0.0, 0.0, 1.711045927966685E9, 0.0, 2024-03-21 14:32:07.966
153.0, 187500.0, -185616.79847440703, 187500.0, -63507.65389295267, 187500.0, 187500.0, 187500.0, 187500.0, 0.07, 0.022, 0.976, 192.0, 0.0, 0.0, 0.0, 0.0, 0.0, 0.0, 0.0, 0.0, 0.0, 1.711045927970707E9, 0.0, 2024-03-21 14:32:07.970
154.0, 187500.0, -185646.83921895496, 187500.0, -63541.62854452474, 187500.0, 187500.0, 187500.0, 187500.0, 0.07, 0.022, 0.976, 192.0, 0.0, 0.0, 0.0, 0.0, 0.0, 0.0, 0.0, 0.0, 0.0, 1.711045927975707E9, 0.0, 2024-03-21 14:32:07.975
155.0, 187500.0, -185656.85280047095, 187500.0, -63546.05418992689, 187500.0, 187500.0, 187500.0, 187500.0, 0.07, 0.022, 0.976, 192.0, 0.0, 0.0, 0.0, 0.0, 0.0, 0.0, 0.0, 0.0, 0.0, 1.71104592797871E9, 0.0, 2024-03-21 14:32:07.978
156.0, 187500.0, -185649.70024224525, 187500.0, -63531.033817652926, 187500.0, 187500.0, 187500.0, 187500.0, 0.066, 0.022, 0.978, 192.0, 2.0, 16.0, 0.0, 176.0, 30.0, 144.0, 0.0, 0.0, 0.0, 1.711045927982705E9, 0.0, 2024-03-21 14:32:07.982
157.0, 187500.0, -185629.65072746883, 187500.0, -63542.90259395869, 187500.0, 187500.0, 187500.0, 187500.0, 0.066, 0.022, 0.978, 192.0, 0.0, 0.0, 0.0, 0.0, 0.0, 0.0, 0.0, 0.0, 0.0, 1.711045927986709E9, 0.0, 2024-03-21 14:32:07.986
158.0, 187500.0, -185619.54773897503, 187500.0, -63587.04728925792, 187500.0, 187500.0, 187500.0, 187500.0, 0.066, 0.022, 0.978, 192.0, 0.0, 0.0, 0.0, 0.0, 0.0, 0.0, 0.0, 0.0, 0.0, 1.711045927990706E9, 0.0, 2024-03-21 14:32:07.990
159.0, 187500.0, -185634.38929729335, 187500.0, -63607.94617032364, 187500.0, 187500.0, 187500.0, 187500.0, 0.066, 0.022, 0.978, 192.0, 0.0, 0.0, 0.0, 0.0, 0.0, 0.0, 0.0, 0.0, 0.0, 1.711045927994712E9, 0.0, 2024-03-21 14:32:07.994
160.0, 187500.0, -185644.78285846507, 187500.0, -63598.33492020785, 187500.0, 187500.0, 187500.0, 187500.0, 0.066, 0.022, 0.978, 192.0, 0.0, 0.0, 0.0, 0.0, 0.0, 0.0, 0.0, 0.0, 0.0, 1.711045927998705E9, 0.0, 2024-03-21 14:32:07.998
161.0, 187500.0, -185631.32710830297, 187500.0, -63609.175516268675, 187500.0, 187500.0, 187500.0, 187500.0, 0.066, 0.022, 0.978, 192.0, 0.0, 0.0, 0.0, 0.0, 0.0, 0.0, 0.0, 0.0, 0.0, 1.711045928002772E9, 0.0, 2024-03-21 14:32:08.002
162.0, 187500.0, -185626.566186734, 187500.0, -63649.31924931041, 187500.0, 187500.0, 187500.0, 187500.0, 0.066, 0.022, 0.978, 192.0, 0.0, 0.0, 0.0, 0.0, 0.0, 0.0, 0.0, 0.0, 0.0, 1.711045928006769E9, 0.0, 2024-03-21 14:32:08.006
163.0, 187500.0, -185639.88782642936, 187500.0, -63663.8255314619, 187500.0, 187500.0, 187500.0, 187500.0, 0.066, 0.022, 0.978, 192.0, 0.0, 0.0, 0.0, 0.0, 0.0, 0.0, 0.0, 0.0, 0.0, 1.711045928010766E9, 0.0, 2024-03-21 14:32:08.010
164.0, 187500.0, -185656.89750395986, 187500.0, -63636.35523752633, 187500.0, 187500.0, 187500.0, 187500.0, 0.066, 0.022, 0.978, 192.0, 0.0, 0.0, 0.0, 0.0, 0.0, 0.0, 0.0, 0.0, 0.0, 1.71104592801475E9, 0.0, 2024-03-21 14:32:08.014
165.0, 187500.0, -185638.79259095105, 187500.0, -63614.89756284923, 187500.0, 187500.0, 187500.0, 187500.0, 0.066, 0.022, 0.978, 192.0, 0.0, 0.0, 0.0, 0.0, 0.0, 0.0, 0.0, 0.0, 0.0, 1.711045928018749E9, 0.0, 2024-03-21 14:32:08.018
166.0, 187500.0, -185634.23283508216, 187500.0, -63629.35914151182, 187500.0, 187500.0, 187500.0, 187500.0, 0.066, 0.026000000000000002, 0.982, 192.0, 2.0, 16.0, 0.0, 208.0, 30.0, 176.0, 0.0, 0.0, 0.0, 1.71104592802275E9, 0.0, 2024-03-21 14:32:08.022
167.0, 187500.0, -185664.9217802193, 187500.0, -63631.773129912996, 187500.0, 187500.0, 187500.0, 187500.0, 0.066, 0.026000000000000002, 0.982, 192.0, 0.0, 0.0, 0.0, 0.0, 0.0, 0.0, 0.0, 0.0, 0.0, 1.711045928026751E9, 0.0, 2024-03-21 14:32:08.026
168.0, 187500.0, -185642.32416657498, 187500.0, -63602.06766153189, 187500.0, 187500.0, 187500.0, 187500.0, 0.066, 0.026000000000000002, 0.982, 192.0, 0.0, 0.0, 0.0, 0.0, 0.0, 0.0, 0.0, 0.0, 0.0, 1.711045928031757E9, 0.0, 2024-03-21 14:32:08.031
169.0, 187500.0, -185623.8616256549, 187500.0, -63572.272786172965, 187500.0, 187500.0, 187500.0, 187500.0, 0.066, 0.026000000000000002, 0.982, 192.0, 0.0, 0.0, 0.0, 0.0, 0.0, 0.0, 0.0, 0.0, 0.0, 1.711045928034753E9, 0.0, 2024-03-21 14:32:08.034
170.0, 187500.0, -185615.6585354398, 187500.0, -63583.49336188953, 187500.0, 187500.0, 187500.0, 187500.0, 0.066, 0.026000000000000002, 0.982, 192.0, 0.0, 0.0, 0.0, 0.0, 0.0, 0.0, 0.0, 0.0, 0.0, 1.711045928037754E9, 0.0, 2024-03-21 14:32:08.037
171.0, 187500.0, -185636.11038161643, 187500.0, -63591.8082108269, 187500.0, 187500.0, 187500.0, 187500.0, 0.066, 0.026000000000000002, 0.982, 192.0, 0.0, 0.0, 0.0, 0.0, 0.0, 0.0, 0.0, 0.0, 0.0, 1.711045928042759E9, 0.0, 2024-03-21 14:32:08.042
172.0, 187500.0, -185627.28144255656, 187500.0, -63567.33305064834, 187500.0, 187500.0, 187500.0, 187500.0, 0.066, 0.026000000000000002, 0.982, 192.0, 0.0, 0.0, 0.0, 0.0, 0.0, 0.0, 0.0, 0.0, 0.0, 1.711045928046758E9, 0.0, 2024-03-21 14:32:08.046
173.0, 187500.0, -185624.8674541554, 187500.0, -63531.793776964405, 187500.0, 187500.0, 187500.0, 187500.0, 0.066, 0.026000000000000002, 0.982, 192.0, 0.0, 0.0, 0.0, 0.0, 0.0, 0.0, 0.0, 0.0, 0.0, 1.711045928050771E9, 0.0, 2024-03-21 14:32:08.050
174.0, 187500.0, -185623.39223902134, 187500.0, -63541.6955997581, 187500.0, 187500.0, 187500.0, 187500.0, 0.066, 0.026000000000000002, 0.982, 192.0, 0.0, 0.0, 0.0, 0.0, 0.0, 0.0, 0.0, 0.0, 0.0, 1.711045928054806E9, 0.0, 2024-03-21 14:32:08.054
175.0, 187500.0, -185637.60794849493, 187500.0, -63570.88697801674, 187500.0, 187500.0, 187500.0, 187500.0, 0.066, 0.026000000000000002, 0.982, 192.0, 0.0, 0.0, 0.0, 0.0, 0.0, 0.0, 0.0, 0.0, 0.0, 1.711045928058802E9, 0.0, 2024-03-21 14:32:08.058
176.0, 187500.0, -185637.54089326155, 187500.0, -63585.70618459061, 187500.0, 187500.0, 187500.0, 187500.0, 0.066, 0.022, 0.982, 192.0, 2.0, 16.0, 0.0, 176.0, 30.0, 176.0, 0.0, 0.0, 0.0, 1.711045928061799E9, 0.0, 2024-03-21 14:32:08.061
177.0, 187500.0, -185629.60602397993, 187500.0, -63585.30385319041, 187500.0, 187500.0, 187500.0, 187500.0, 0.066, 0.022, 0.982, 192.0, 0.0, 0.0, 0.0, 0.0, 0.0, 0.0, 0.0, 0.0, 0.0, 1.711045928065795E9, 0.0, 2024-03-21 14:32:08.065
178.0, 187500.0, -185628.71195420172, 187500.0, -63620.26198151851, 187500.0, 187500.0, 187500.0, 187500.0, 0.066, 0.022, 0.982, 192.0, 0.0, 0.0, 0.0, 0.0, 0.0, 0.0, 0.0, 0.0, 0.0, 1.711045928070818E9, 0.0, 2024-03-21 14:32:08.070
179.0, 187500.0, -185636.31154731652, 187500.0, -63691.56404633094, 187500.0, 187500.0, 187500.0, 187500.0, 0.066, 0.022, 0.982, 192.0, 0.0, 0.0, 0.0, 0.0, 0.0, 0.0, 0.0, 0.0, 0.0, 1.711045928074815E9, 0.0, 2024-03-21 14:32:08.074
180.0, 187500.0, -185647.4203643108, 187500.0, -63731.730131117125, 187500.0, 187500.0, 187500.0, 187500.0, 0.066, 0.022, 0.982, 192.0, 0.0, 0.0, 0.0, 0.0, 0.0, 0.0, 0.0, 0.0, 0.0, 1.711045928078817E9, 0.0, 2024-03-21 14:32:08.078
181.0, 187500.0, -185655.2658266146, 187500.0, -63750.50559645958, 187500.0, 187500.0, 187500.0, 187500.0, 0.066, 0.022, 0.982, 192.0, 0.0, 0.0, 0.0, 0.0, 0.0, 0.0, 0.0, 0.0, 0.0, 1.711045928082814E9, 0.0, 2024-03-21 14:32:08.082
182.0, 187500.0, -185641.5642072635, 187500.0, -63791.56575102398, 187500.0, 187500.0, 187500.0, 187500.0, 0.066, 0.022, 0.982, 192.0, 0.0, 0.0, 0.0, 0.0, 0.0, 0.0, 0.0, 0.0, 0.0, 1.711045928086811E9, 0.0, 2024-03-21 14:32:08.086
183.0, 187500.0, -185649.1190968894, 187500.0, -63861.10202802444, 187500.0, 187500.0, 187500.0, 187500.0, 0.066, 0.022, 0.982, 192.0, 0.0, 0.0, 0.0, 0.0, 0.0, 0.0, 0.0, 0.0, 0.0, 1.711045928089837E9, 0.0, 2024-03-21 14:32:08.089
184.0, 187500.0, -185666.91108547582, 187500.0, -63889.242874293675, 187500.0, 187500.0, 187500.0, 187500.0, 0.066, 0.022, 0.982, 192.0, 0.0, 0.0, 0.0, 0.0, 0.0, 0.0, 0.0, 0.0, 0.0, 1.711045928093849E9, 0.0, 2024-03-21 14:32:08.093
185.0, 187500.0, -185627.90729140132, 187500.0, -63880.03395557809, 187500.0, 187500.0, 187500.0, 187500.0, 0.066, 0.022, 0.982, 192.0, 0.0, 0.0, 0.0, 0.0, 0.0, 0.0, 0.0, 0.0, 0.0, 1.711045928098822E9, 0.0, 2024-03-21 14:32:08.098
186.0, 187500.0, -185616.59730870693, 187500.0, -63892.9309121288, 187500.0, 187500.0, 187500.0, 187500.0, 0.064, 0.026000000000000002, 0.974, 192.0, 2.0, 0.0, 0.0, 208.0, 30.0, 112.0, 0.0, 0.0, 0.0, 1.711045928102815E9, 0.0, 2024-03-21 14:32:08.102
187.0, 187500.0, -185631.14829434734, 187500.0, -63935.64509578289, 187500.0, 187500.0, 187500.0, 187500.0, 0.064, 0.026000000000000002, 0.974, 192.0, 0.0, 0.0, 0.0, 0.0, 0.0, 0.0, 0.0, 0.0, 0.0, 1.711045928106858E9, 0.0, 2024-03-21 14:32:08.106
188.0, 187500.0, -185630.54479724704, 187500.0, -63954.35350589198, 187500.0, 187500.0, 187500.0, 187500.0, 0.064, 0.026000000000000002, 0.974, 192.0, 0.0, 0.0, 0.0, 0.0, 0.0, 0.0, 0.0, 0.0, 0.0, 1.711045928110873E9, 0.0, 2024-03-21 14:32:08.110
189.0, 187500.0, -185643.88878868686, 187500.0, -63927.2408398677, 187500.0, 187500.0, 187500.0, 187500.0, 0.064, 0.026000000000000002, 0.974, 192.0, 0.0, 0.0, 0.0, 0.0, 0.0, 0.0, 0.0, 0.0, 0.0, 1.711045928113845E9, 0.0, 2024-03-21 14:32:08.113
190.0, 187500.0, -185628.60019547943, 187500.0, -63905.60435123496, 187500.0, 187500.0, 187500.0, 187500.0, 0.064, 0.026000000000000002, 0.974, 192.0, 0.0, 0.0, 0.0, 0.0, 0.0, 0.0, 0.0, 0.0, 0.0, 1.711045928117894E9, 0.0, 2024-03-21 14:32:08.117
191.0, 187500.0, -185636.75858220563, 187500.0, -63940.87540398543, 187500.0, 187500.0, 187500.0, 187500.0, 0.064, 0.026000000000000002, 0.974, 192.0, 0.0, 0.0, 0.0, 0.0, 0.0, 0.0, 0.0, 0.0, 0.0, 1.711045928121839E9, 0.0, 2024-03-21 14:32:08.121
192.0, 187500.0, -185633.80815193753, 187500.0, -63962.89187227391, 187500.0, 187500.0, 187500.0, 187500.0, 0.064, 0.026000000000000002, 0.974, 192.0, 0.0, 0.0, 0.0, 0.0, 0.0, 0.0, 0.0, 0.0, 0.0, 1.711045928126861E9, 0.0, 2024-03-21 14:32:08.126
193.0, 187500.0, -185644.13465787587, 187500.0, -63940.58483130751, 187500.0, 187500.0, 187500.0, 187500.0, 0.064, 0.026000000000000002, 0.974, 192.0, 0.0, 0.0, 0.0, 0.0, 0.0, 0.0, 0.0, 0.0, 0.0, 1.711045928130861E9, 0.0, 2024-03-21 14:32:08.130
194.0, 187500.0, -185640.22310259618, 187500.0, -63923.50809854366, 187500.0, 187500.0, 187500.0, 187500.0, 0.064, 0.026000000000000002, 0.974, 192.0, 0.0, 0.0, 0.0, 0.0, 0.0, 0.0, 0.0, 0.0, 0.0, 1.711045928134857E9, 0.0, 2024-03-21 14:32:08.134
195.0, 187500.0, -185629.71778270218, 187500.0, -63952.453607613286, 187500.0, 187500.0, 187500.0, 187500.0, 0.066, 0.022, 0.972, 192.0, 2.0, 16.0, 0.0, 176.0, 30.0, 96.0, 0.0, 0.0, 0.0, 1.711045928138869E9, 0.0, 2024-03-21 14:32:08.138
196.0, 187500.0, -185646.68275674377, 187500.0, -63988.149343508405, 187500.0, 187500.0, 187500.0, 187500.0, 0.066, 0.022, 0.972, 192.0, 0.0, 0.0, 0.0, 0.0, 0.0, 0.0, 0.0, 0.0, 0.0, 1.711045928141902E9, 0.0, 2024-03-21 14:32:08.141
197.0, 187500.0, -185634.99279439365, 187500.0, -63988.70813711979, 187500.0, 187500.0, 187500.0, 187500.0, 0.066, 0.022, 0.972, 192.0, 0.0, 0.0, 0.0, 0.0, 0.0, 0.0, 0.0, 0.0, 0.0, 1.711045928145909E9, 0.0, 2024-03-21 14:32:08.145
198.0, 187500.0, -185639.53019851807, 187500.0, -63977.93459629233, 187500.0, 187500.0, 187500.0, 187500.0, 0.066, 0.022, 0.972, 192.0, 0.0, 0.0, 0.0, 0.0, 0.0, 0.0, 0.0, 0.0, 0.0, 1.711045928149913E9, 0.0, 2024-03-21 14:32:08.149
199.0, 187500.0, -185626.18620707825, 187500.0, -64011.03752983064, 187500.0, 187500.0, 187500.0, 187500.0, 0.066, 0.022, 0.972, 192.0, 0.0, 0.0, 0.0, 0.0, 0.0, 0.0, 0.0, 0.0, 0.0, 1.7110459281549E9, 0.0, 2024-03-21 14:32:08.154
200.0, 187500.0, -185633.89755891534, 187500.0, -64052.410608817416, 187500.0, 187500.0, 187500.0, 187500.0, 0.066, 0.022, 0.972, 192.0, 0.0, 0.0, 0.0, 0.0, 0.0, 0.0, 0.0, 0.0, 0.0, 1.7110459281589E9, 0.0, 2024-03-21 14:32:08.158
201.0, 187500.0, -185631.43886702525, 187500.0, -64055.3163355966, 187500.0, 187500.0, 187500.0, 187500.0, 0.066, 0.022, 0.972, 192.0, 0.0, 0.0, 0.0, 0.0, 0.0, 0.0, 0.0, 0.0, 0.0, 1.711045928162894E9, 0.0, 2024-03-21 14:32:08.162
202.0, 187500.0, -185647.0180329106, 187500.0, -64043.2687453352, 187500.0, 187500.0, 187500.0, 187500.0, 0.066, 0.022, 0.972, 192.0, 0.0, 0.0, 0.0, 0.0, 0.0, 0.0, 0.0, 0.0, 0.0, 1.711045928165877E9, 0.0, 2024-03-21 14:32:08.165
203.0, 187500.0, -185639.97723340717, 187500.0, -64058.91496645391, 187500.0, 187500.0, 187500.0, 187500.0, 0.066, 0.022, 0.972, 192.0, 0.0, 0.0, 0.0, 0.0, 0.0, 0.0, 0.0, 0.0, 0.0, 1.711045928169902E9, 0.0, 2024-03-21 14:32:08.169
204.0, 187500.0, -185655.4669923147, 187500.0, -64104.31135944264, 187500.0, 187500.0, 187500.0, 187500.0, 0.066, 0.022, 0.972, 192.0, 0.0, 0.0, 0.0, 0.0, 0.0, 0.0, 0.0, 0.0, 0.0, 1.711045928173893E9, 0.0, 2024-03-21 14:32:08.173
205.0, 187500.0, -185637.38443105036, 187500.0, -64137.50369995877, 187500.0, 187500.0, 187500.0, 187500.0, 0.066, 0.024, 0.978, 192.0, 2.0, 16.0, 0.0, 192.0, 30.0, 144.0, 0.0, 0.0, 0.0, 1.711045928177892E9, 0.0, 2024-03-21 14:32:08.177
206.0, 187500.0, -185634.29989031554, 187500.0, -64104.93720828739, 187500.0, 187500.0, 187500.0, 187500.0, 0.066, 0.024, 0.978, 192.0, 0.0, 0.0, 0.0, 0.0, 0.0, 0.0, 0.0, 0.0, 0.0, 1.71104592818292E9, 0.0, 2024-03-21 14:32:08.182
207.0, 187500.0, -185611.2105382932, 187500.0, -64095.79534480517, 187500.0, 187500.0, 187500.0, 187500.0, 0.066, 0.024, 0.978, 192.0, 0.0, 0.0, 0.0, 0.0, 0.0, 0.0, 0.0, 0.0, 0.0, 1.71104592818694E9, 0.0, 2024-03-21 14:32:08.186
208.0, 187500.0, -185631.55062574754, 187500.0, -64133.48038595681, 187500.0, 187500.0, 187500.0, 187500.0, 0.066, 0.024, 0.978, 192.0, 0.0, 0.0, 0.0, 0.0, 0.0, 0.0, 0.0, 0.0, 0.0, 1.711045928190932E9, 0.0, 2024-03-21 14:32:08.190
209.0, 187500.0, -185634.18813159326, 187500.0, -64133.435682467905, 187500.0, 187500.0, 187500.0, 187500.0, 0.066, 0.024, 0.978, 192.0, 0.0, 0.0, 0.0, 0.0, 0.0, 0.0, 0.0, 0.0, 0.0, 1.711045928193931E9, 0.0, 2024-03-21 14:32:08.193
210.0, 187500.0, -185635.19396009375, 187500.0, -64100.48921114078, 187500.0, 187500.0, 187500.0, 187500.0, 0.066, 0.024, 0.978, 192.0, 0.0, 0.0, 0.0, 0.0, 0.0, 0.0, 0.0, 0.0, 0.0, 1.711045928197934E9, 0.0, 2024-03-21 14:32:08.197
211.0, 187500.0, -185613.44571273873, 187500.0, -64093.49311512627, 187500.0, 187500.0, 187500.0, 187500.0, 0.066, 0.024, 0.978, 192.0, 0.0, 0.0, 0.0, 0.0, 0.0, 0.0, 0.0, 0.0, 0.0, 1.711045928201934E9, 0.0, 2024-03-21 14:32:08.201
212.0, 187500.0, -185610.6070411929, 187500.0, -64108.22291472232, 187500.0, 187500.0, 187500.0, 187500.0, 0.066, 0.024, 0.978, 192.0, 0.0, 0.0, 0.0, 0.0, 0.0, 0.0, 0.0, 0.0, 0.0, 1.711045928205935E9, 0.0, 2024-03-21 14:32:08.205
213.0, 187500.0, -185640.53602701856, 187500.0, -64109.78753683419, 187500.0, 187500.0, 187500.0, 187500.0, 0.066, 0.024, 0.978, 192.0, 0.0, 0.0, 0.0, 0.0, 0.0, 0.0, 0.0, 0.0, 0.0, 1.711045928210937E9, 0.0, 2024-03-21 14:32:08.210
214.0, 187500.0, -185644.1123061314, 187500.0, -64083.41247837693, 187500.0, 187500.0, 187500.0, 187500.0, 0.066, 0.024, 0.978, 192.0, 0.0, 0.0, 0.0, 0.0, 0.0, 0.0, 0.0, 0.0, 0.0, 1.711045928214941E9, 0.0, 2024-03-21 14:32:08.214
215.0, 187500.0, -185639.39608805135, 187500.0, -64064.81582699011, 187500.0, 187500.0, 187500.0, 187500.0, 0.066, 0.022, 0.978, 192.0, 2.0, 16.0, 0.0, 176.0, 30.0, 144.0, 0.0, 0.0, 0.0, 1.711045928218939E9, 0.0, 2024-03-21 14:32:08.218
216.0, 187500.0, -185631.93060540326, 187500.0, -64089.738022057776, 187500.0, 187500.0, 187500.0, 187500.0, 0.066, 0.022, 0.978, 192.0, 0.0, 0.0, 0.0, 0.0, 0.0, 0.0, 0.0, 0.0, 0.0, 1.711045928221937E9, 0.0, 2024-03-21 14:32:08.221
217.0, 187500.0, -185632.26588157009, 187500.0, -64110.79336533468, 187500.0, 187500.0, 187500.0, 187500.0, 0.066, 0.022, 0.978, 192.0, 0.0, 0.0, 0.0, 0.0, 0.0, 0.0, 0.0, 0.0, 0.0, 1.71104592822594E9, 0.0, 2024-03-21 14:32:08.225
218.0, 187500.0, -185643.9111404313, 187500.0, -64083.81480977712, 187500.0, 187500.0, 187500.0, 187500.0, 0.066, 0.022, 0.978, 192.0, 0.0, 0.0, 0.0, 0.0, 0.0, 0.0, 0.0, 0.0, 0.0, 1.711045928229939E9, 0.0, 2024-03-21 14:32:08.229
219.0, 187500.0, -185618.810131408, 187500.0, -64045.57097501409, 187500.0, 187500.0, 187500.0, 187500.0, 0.066, 0.022, 0.978, 192.0, 0.0, 0.0, 0.0, 0.0, 0.0, 0.0, 0.0, 0.0, 0.0, 1.71104592823396E9, 0.0, 2024-03-21 14:32:08.233
220.0, 187500.0, -185626.25326231163, 187500.0, -64085.84881852256, 187500.0, 187500.0, 187500.0, 187500.0, 0.066, 0.022, 0.978, 192.0, 0.0, 0.0, 0.0, 0.0, 0.0, 0.0, 0.0, 0.0, 0.0, 1.711045928237984E9, 0.0, 2024-03-21 14:32:08.237
221.0, 187500.0, -185635.90921591633, 187500.0, -64118.37060670503, 187500.0, 187500.0, 187500.0, 187500.0, 0.066, 0.022, 0.978, 192.0, 0.0, 0.0, 0.0, 0.0, 0.0, 0.0, 0.0, 0.0, 0.0, 1.711045928242989E9, 0.0, 2024-03-21 14:32:08.242
222.0, 187500.0, -185632.10941935892, 187500.0, -64089.69331856887, 187500.0, 187500.0, 187500.0, 187500.0, 0.066, 0.022, 0.978, 192.0, 0.0, 0.0, 0.0, 0.0, 0.0, 0.0, 0.0, 0.0, 0.0, 1.711045928246981E9, 0.0, 2024-03-21 14:32:08.246
223.0, 187500.0, -185623.10166634343, 187500.0, -64047.7167424818, 187500.0, 187500.0, 187500.0, 187500.0, 0.066, 0.022, 0.978, 192.0, 0.0, 0.0, 0.0, 0.0, 0.0, 0.0, 0.0, 0.0, 0.0, 1.711045928249981E9, 0.0, 2024-03-21 14:32:08.249
224.0, 187500.0, -185639.10551537343, 187500.0, -64035.95972489831, 187500.0, 187500.0, 187500.0, 187500.0, 0.066, 0.022, 0.978, 192.0, 0.0, 0.0, 0.0, 0.0, 0.0, 0.0, 0.0, 0.0, 0.0, 1.711045928253979E9, 0.0, 2024-03-21 14:32:08.253
225.0, 187500.0, -185635.30571881603, 187500.0, -64052.14238788395, 187500.0, 187500.0, 187500.0, 187500.0, 0.06, 0.026000000000000002, 0.976, 192.0, 1.0, 224.0, 0.0, 208.0, 30.0, 128.0, 0.0, 0.0, 0.0, 1.711045928257982E9, 0.0, 2024-03-21 14:32:08.257
226.0, 187500.0, -185641.47480028568, 187500.0, -64035.02095163119, 187500.0, 187500.0, 187500.0, 187500.0, 0.06, 0.026000000000000002, 0.976, 192.0, 0.0, 0.0, 0.0, 0.0, 0.0, 0.0, 0.0, 0.0, 0.0, 1.711045928261979E9, 0.0, 2024-03-21 14:32:08.261
227.0, 187500.0, -185647.39801256635, 187500.0, -63992.37382321046, 187500.0, 187500.0, 187500.0, 187500.0, 0.06, 0.026000000000000002, 0.976, 192.0, 0.0, 0.0, 0.0, 0.0, 0.0, 0.0, 0.0, 0.0, 0.0, 1.711045928265979E9, 0.0, 2024-03-21 14:32:08.265
228.0, 187500.0, -185630.07541061347, 187500.0, -63987.41173594138, 187500.0, 187500.0, 187500.0, 187500.0, 0.06, 0.026000000000000002, 0.976, 192.0, 0.0, 0.0, 0.0, 0.0, 0.0, 0.0, 0.0, 0.0, 0.0, 1.711045928270979E9, 0.0, 2024-03-21 14:32:08.270
229.0, 187500.0, -185631.26005306962, 187500.0, -64009.986997841246, 187500.0, 187500.0, 187500.0, 187500.0, 0.06, 0.026000000000000002, 0.976, 192.0, 0.0, 0.0, 0.0, 0.0, 0.0, 0.0, 0.0, 0.0, 0.0, 1.711045928274981E9, 0.0, 2024-03-21 14:32:08.274
230.0, 187500.0, -185645.565169521, 187500.0, -64014.05501533211, 187500.0, 187500.0, 187500.0, 187500.0, 0.06, 0.026000000000000002, 0.976, 192.0, 0.0, 0.0, 0.0, 0.0, 0.0, 0.0, 0.0, 0.0, 0.0, 1.711045928277982E9, 0.0, 2024-03-21 14:32:08.277
231.0, 187500.0, -185652.5165620466, 187500.0, -63981.71204110528, 187500.0, 187500.0, 187500.0, 187500.0, 0.06, 0.026000000000000002, 0.976, 192.0, 0.0, 0.0, 0.0, 0.0, 0.0, 0.0, 0.0, 0.0, 0.0, 1.711045928282018E9, 0.0, 2024-03-21 14:32:08.282
232.0, 187500.0, -185640.6701374853, 187500.0, -63973.46424740127, 187500.0, 187500.0, 187500.0, 187500.0, 0.06, 0.026000000000000002, 0.976, 192.0, 0.0, 0.0, 0.0, 0.0, 0.0, 0.0, 0.0, 0.0, 0.0, 1.711045928286013E9, 0.0, 2024-03-21 14:32:08.286
233.0, 187500.0, -185636.35625080543, 187500.0, -63997.06768954608, 187500.0, 187500.0, 187500.0, 187500.0, 0.06, 0.026000000000000002, 0.976, 192.0, 0.0, 0.0, 0.0, 0.0, 0.0, 0.0, 0.0, 0.0, 0.0, 1.711045928290031E9, 0.0, 2024-03-21 14:32:08.290
234.0, 187500.0, -185614.38448600585, 187500.0, -64014.94908511032, 187500.0, 187500.0, 187500.0, 187500.0, 0.06, 0.026000000000000002, 0.976, 192.0, 0.0, 0.0, 0.0, 0.0, 0.0, 0.0, 0.0, 0.0, 0.0, 1.711045928294024E9, 0.0, 2024-03-21 14:32:08.294
235.0, 187500.0, -185615.68088718425, 187500.0, -63973.17367472335, 187500.0, 187500.0, 187500.0, 187500.0, 0.062, 0.028, 0.98, 192.0, 1.0, 240.0, 0.0, 224.0, 30.0, 160.0, 0.0, 0.0, 0.0, 1.711045928299032E9, 0.0, 2024-03-21 14:32:08.299
236.0, 187500.0, -185578.73345359965, 187500.0, -63982.226131227755, 187500.0, 187500.0, 187500.0, 187500.0, 0.062, 0.028, 0.98, 192.0, 0.0, 0.0, 0.0, 0.0, 0.0, 0.0, 0.0, 0.0, 0.0, 1.711045928302014E9, 0.0, 2024-03-21 14:32:08.302
237.0, 187500.0, -185603.58859343393, 187500.0, -64011.4622129753, 187500.0, 187500.0, 187500.0, 187500.0, 0.062, 0.028, 0.98, 192.0, 0.0, 0.0, 0.0, 0.0, 0.0, 0.0, 0.0, 0.0, 0.0, 1.711045928305057E9, 0.0, 2024-03-21 14:32:08.305
238.0, 187500.0, -185654.84114346997, 187500.0, -64027.68957944985, 187500.0, 187500.0, 187500.0, 187500.0, 0.062, 0.028, 0.98, 192.0, 0.0, 0.0, 0.0, 0.0, 0.0, 0.0, 0.0, 0.0, 0.0, 1.711045928310072E9, 0.0, 2024-03-21 14:32:08.310
239.0, 187500.0, -185654.50586730312, 187500.0, -63993.73727962223, 187500.0, 187500.0, 187500.0, 187500.0, 0.062, 0.028, 0.98, 192.0, 0.0, 0.0, 0.0, 0.0, 0.0, 0.0, 0.0, 0.0, 0.0, 1.711045928314067E9, 0.0, 2024-03-21 14:32:08.314
240.0, 187500.0, -185643.75467822014, 187500.0, -63960.76845655066, 187500.0, 187500.0, 187500.0, 187500.0, 0.062, 0.028, 0.98, 192.0, 0.0, 0.0, 0.0, 0.0, 0.0, 0.0, 0.0, 0.0, 0.0, 1.711045928318066E9, 0.0, 2024-03-21 14:32:08.318
241.0, 187500.0, -185631.30475655853, 187500.0, -63971.519645633656, 187500.0, 187500.0, 187500.0, 187500.0, 0.062, 0.028, 0.98, 192.0, 0.0, 0.0, 0.0, 0.0, 0.0, 0.0, 0.0, 0.0, 0.0, 1.711045928322064E9, 0.0, 2024-03-21 14:32:08.322
242.0, 187500.0, -185632.89173041485, 187500.0, -63986.80823884109, 187500.0, 187500.0, 187500.0, 187500.0, 0.062, 0.028, 0.98, 192.0, 0.0, 0.0, 0.0, 0.0, 0.0, 0.0, 0.0, 0.0, 0.0, 1.711045928327058E9, 0.0, 2024-03-21 14:32:08.327
243.0, 187500.0, -185619.32422153046, 187500.0, -63964.18827345232, 187500.0, 187500.0, 187500.0, 187500.0, 0.062, 0.028, 0.98, 192.0, 0.0, 0.0, 0.0, 0.0, 0.0, 0.0, 0.0, 0.0, 0.0, 1.711045928330069E9, 0.0, 2024-03-21 14:32:08.330
244.0, 187500.0, -185622.38641052085, 187500.0, -63934.46045332676, 187500.0, 187500.0, 187500.0, 187500.0, 0.062, 0.028, 0.98, 192.0, 0.0, 0.0, 0.0, 0.0, 0.0, 0.0, 0.0, 0.0, 0.0, 1.711045928334067E9, 0.0, 2024-03-21 14:32:08.334
245.0, 187500.0, -185620.64297445334, 187500.0, -63940.98716270771, 187500.0, 187500.0, 187500.0, 187500.0, 0.07, 0.026000000000000002, 0.976, 192.0, 2.0, 48.0, 0.0, 208.0, 30.0, 128.0, 0.0, 0.0, 0.0, 1.711045928338065E9, 0.0, 2024-03-21 14:32:08.338
246.0, 187500.0, -185629.36015479092, 187500.0, -63963.45066588529, 187500.0, 187500.0, 187500.0, 187500.0, 0.07, 0.026000000000000002, 0.976, 192.0, 0.0, 0.0, 0.0, 0.0, 0.0, 0.0, 0.0, 0.0, 0.0, 1.711045928342068E9, 0.0, 2024-03-21 14:32:08.342
247.0, 187500.0, -185646.70510848824, 187500.0, -63953.481787858225, 187500.0, 187500.0, 187500.0, 187500.0, 0.07, 0.026000000000000002, 0.976, 192.0, 0.0, 0.0, 0.0, 0.0, 0.0, 0.0, 0.0, 0.0, 0.0, 1.711045928346065E9, 0.0, 2024-03-21 14:32:08.346
248.0, 187500.0, -185651.7118992462, 187500.0, -63923.016360165646, 187500.0, 187500.0, 187500.0, 187500.0, 0.07, 0.026000000000000002, 0.976, 192.0, 0.0, 0.0, 0.0, 0.0, 0.0, 0.0, 0.0, 0.0, 0.0, 1.711045928350067E9, 0.0, 2024-03-21 14:32:08.350
249.0, 187500.0, -185631.88590191436, 187500.0, -63932.56055504806, 187500.0, 187500.0, 187500.0, 187500.0, 0.07, 0.026000000000000002, 0.976, 192.0, 0.0, 0.0, 0.0, 0.0, 0.0, 0.0, 0.0, 0.0, 0.0, 1.711045928354065E9, 0.0, 2024-03-21 14:32:08.354
250.0, 187500.0, -185621.04530585353, 187500.0, -63963.74123856321, 187500.0, 187500.0, 187500.0, 187500.0, 0.07, 0.026000000000000002, 0.976, 192.0, 0.0, 0.0, 0.0, 0.0, 0.0, 0.0, 0.0, 0.0, 0.0, 1.711045928358108E9, 0.0, 2024-03-21 14:32:08.358
251.0, 187500.0, -185623.23577681015, 187500.0, -63969.82091305505, 187500.0, 187500.0, 187500.0, 187500.0, 0.07, 0.026000000000000002, 0.976, 192.0, 0.0, 0.0, 0.0, 0.0, 0.0, 0.0, 0.0, 0.0, 0.0, 1.711045928361111E9, 0.0, 2024-03-21 14:32:08.361
252.0, 187500.0, -185626.78970417855, 187500.0, -63930.481842813715, 187500.0, 187500.0, 187500.0, 187500.0, 0.07, 0.026000000000000002, 0.976, 192.0, 0.0, 0.0, 0.0, 0.0, 0.0, 0.0, 0.0, 0.0, 0.0, 1.711045928366142E9, 0.0, 2024-03-21 14:32:08.366
253.0, 187500.0, -185628.62254722387, 187500.0, -63913.53922051659, 187500.0, 187500.0, 187500.0, 187500.0, 0.07, 0.026000000000000002, 0.976, 192.0, 0.0, 0.0, 0.0, 0.0, 0.0, 0.0, 0.0, 0.0, 0.0, 1.71104592837011E9, 0.0, 2024-03-21 14:32:08.370
254.0, 187500.0, -185642.68179448627, 187500.0, -63941.121273174445, 187500.0, 187500.0, 187500.0, 187500.0, 0.07, 0.026000000000000002, 0.976, 192.0, 0.0, 0.0, 0.0, 0.0, 0.0, 0.0, 0.0, 0.0, 0.0, 1.711045928374111E9, 0.0, 2024-03-21 14:32:08.374
255.0, 187500.0, -185646.6157015104, 187500.0, -63951.6936483018, 187500.0, 187500.0, 187500.0, 187500.0, 0.066, 0.024, 0.978, 192.0, 2.0, 16.0, 0.0, 192.0, 30.0, 144.0, 0.0, 0.0, 0.0, 1.711045928378108E9, 0.0, 2024-03-21 14:32:08.378
0.0, 187500.0, -185627.23673906765, 187500.0, -63909.80647919256, 187500.0, 187500.0, 187500.0, 187500.0, 0.066, 0.024, 0.978, 192.0, 0.0, 0.0, 0.0, 0.0, 0.0, 0.0, 0.0, 0.0, 0.0, 1.71104592838312E9, 0.0, 2024-03-21 14:32:08.383
1.0, 187500.0, -185626.83440766745, 187500.0, -63898.518848242624, 187500.0, 187500.0, 187500.0, 187500.0, 0.066, 0.024, 0.978, 192.0, 0.0, 0.0, 0.0, 0.0, 0.0, 0.0, 0.0, 0.0, 0.0, 1.711045928386115E9, 0.0, 2024-03-21 14:32:08.386
2.0, 187500.0, -185652.2259893687, 187500.0, -63908.13009835841, 187500.0, 187500.0, 187500.0, 187500.0, 0.066, 0.024, 0.978, 192.0, 0.0, 0.0, 0.0, 0.0, 0.0, 0.0, 0.0, 0.0, 0.0, 1.711045928389121E9, 0.0, 2024-03-21 14:32:08.389
3.0, 187500.0, -185642.59238750846, 187500.0, -63915.61793275094, 187500.0, 187500.0, 187500.0, 187500.0, 0.066, 0.024, 0.978, 192.0, 0.0, 0.0, 0.0, 0.0, 0.0, 0.0, 0.0, 0.0, 0.0, 1.711045928394111E9, 0.0, 2024-03-21 14:32:08.394
4.0, 187500.0, -185621.64880295383, 187500.0, -63881.9785573457, 187500.0, 187500.0, 187500.0, 187500.0, 0.066, 0.024, 0.978, 192.0, 0.0, 0.0, 0.0, 0.0, 0.0, 0.0, 0.0, 0.0, 0.0, 1.711045928398141E9, 0.0, 2024-03-21 14:32:08.398
5.0, 187500.0, -185622.34170703194, 187500.0, -63860.05149603504, 187500.0, 187500.0, 187500.0, 187500.0, 0.066, 0.024, 0.978, 192.0, 0.0, 0.0, 0.0, 0.0, 0.0, 0.0, 0.0, 0.0, 0.0, 1.711045928402121E9, 0.0, 2024-03-21 14:32:08.402
6.0, 187500.0, -185633.53993100405, 187500.0, -63875.92123459831, 187500.0, 187500.0, 187500.0, 187500.0, 0.066, 0.024, 0.978, 192.0, 0.0, 0.0, 0.0, 0.0, 0.0, 0.0, 0.0, 0.0, 0.0, 1.711045928406145E9, 0.0, 2024-03-21 14:32:08.406
7.0, 187500.0, -185637.20561709473, 187500.0, -63883.83375213549, 187500.0, 187500.0, 187500.0, 187500.0, 0.066, 0.024, 0.978, 192.0, 0.0, 0.0, 0.0, 0.0, 0.0, 0.0, 0.0, 0.0, 0.0, 1.711045928411162E9, 0.0, 2024-03-21 14:32:08.411
8.0, 187500.0, -185659.13267840538, 187500.0, -63858.1739495008, 187500.0, 187500.0, 187500.0, 187500.0, 0.066, 0.024, 0.978, 192.0, 0.0, 0.0, 0.0, 0.0, 0.0, 0.0, 0.0, 0.0, 0.0, 1.71104592841415E9, 0.0, 2024-03-21 14:32:08.414
9.0, 187500.0, -185639.95488166274, 187500.0, -63833.43056838877, 187500.0, 187500.0, 187500.0, 187500.0, 0.066, 0.02, 0.98, 192.0, 2.0, 16.0, 0.0, 160.0, 30.0, 160.0, 0.0, 0.0, 0.0, 1.711045928417166E9, 0.0, 2024-03-21 14:32:08.417
10.0, 187500.0, -185625.04626811104, 187500.0, -63857.45869367823, 187500.0, 187500.0, 187500.0, 187500.0, 0.066, 0.02, 0.98, 192.0, 0.0, 0.0, 0.0, 0.0, 0.0, 0.0, 0.0, 0.0, 0.0, 1.711045928422142E9, 0.0, 2024-03-21 14:32:08.422
11.0, 187500.0, -185626.20855882272, 187500.0, -63881.71033641224, 187500.0, 187500.0, 187500.0, 187500.0, 0.066, 0.02, 0.98, 192.0, 0.0, 0.0, 0.0, 0.0, 0.0, 0.0, 0.0, 0.0, 0.0, 1.711045928426151E9, 0.0, 2024-03-21 14:32:08.426
12.0, 187500.0, -185633.56228274852, 187500.0, -63862.91251932532, 187500.0, 187500.0, 187500.0, 187500.0, 0.066, 0.02, 0.98, 192.0, 0.0, 0.0, 0.0, 0.0, 0.0, 0.0, 0.0, 0.0, 0.0, 1.711045928430189E9, 0.0, 2024-03-21 14:32:08.430
13.0, 187500.0, -185623.95103263273, 187500.0, -63827.26148691911, 187500.0, 187500.0, 187500.0, 187500.0, 0.066, 0.02, 0.98, 192.0, 0.0, 0.0, 0.0, 0.0, 0.0, 0.0, 0.0, 0.0, 0.0, 1.711045928434195E9, 0.0, 2024-03-21 14:32:08.434
14.0, 187500.0, -185642.23475959717, 187500.0, -63840.62783010338, 187500.0, 187500.0, 187500.0, 187500.0, 0.066, 0.02, 0.98, 192.0, 0.0, 0.0, 0.0, 0.0, 0.0, 0.0, 0.0, 0.0, 0.0, 1.711045928437163E9, 0.0, 2024-03-21 14:32:08.437
15.0, 187500.0, -185624.9121576443, 187500.0, -63881.7773916456, 187500.0, 187500.0, 187500.0, 187500.0, 0.066, 0.02, 0.98, 192.0, 0.0, 0.0, 0.0, 0.0, 0.0, 0.0, 0.0, 0.0, 0.0, 1.711045928441205E9, 0.0, 2024-03-21 14:32:08.441
16.0, 187500.0, -185637.13856186136, 187500.0, -63880.10101081146, 187500.0, 187500.0, 187500.0, 187500.0, 0.066, 0.02, 0.98, 192.0, 0.0, 0.0, 0.0, 0.0, 0.0, 0.0, 0.0, 0.0, 0.0, 1.711045928445195E9, 0.0, 2024-03-21 14:32:08.445
17.0, 187500.0, -185642.48062878617, 187500.0, -63829.474309620186, 187500.0, 187500.0, 187500.0, 187500.0, 0.066, 0.02, 0.98, 192.0, 0.0, 0.0, 0.0, 0.0, 0.0, 0.0, 0.0, 0.0, 0.0, 1.711045928449208E9, 0.0, 2024-03-21 14:32:08.449
18.0, 187500.0, -185626.70029720073, 187500.0, -63813.35870186791, 187500.0, 187500.0, 187500.0, 187500.0, 0.066, 0.02, 0.98, 192.0, 0.0, 0.0, 0.0, 0.0, 0.0, 0.0, 0.0, 0.0, 0.0, 1.711045928454198E9, 0.0, 2024-03-21 14:32:08.454
19.0, 187500.0, -185622.7663901766, 187500.0, -63825.31688515149, 187500.0, 187500.0, 187500.0, 187500.0, 0.07200000000000001, 0.022, 0.972, 192.0, 2.0, 64.0, 0.0, 176.0, 30.0, 96.0, 0.0, 0.0, 0.0, 1.711045928458205E9, 0.0, 2024-03-21 14:32:08.458
20.0, 187500.0, -185626.54383498954, 187500.0, -63806.42966108676, 187500.0, 187500.0, 187500.0, 187500.0, 0.07200000000000001, 0.022, 0.972, 192.0, 0.0, 0.0, 0.0, 0.0, 0.0, 0.0, 0.0, 0.0, 0.0, 1.71104592846219E9, 0.0, 2024-03-21 14:32:08.462
21.0, 187500.0, -185615.39031450634, 187500.0, -63767.38116352334, 187500.0, 187500.0, 187500.0, 187500.0, 0.07200000000000001, 0.022, 0.972, 192.0, 0.0, 0.0, 0.0, 0.0, 0.0, 0.0, 0.0, 0.0, 0.0, 1.711045928465187E9, 0.0, 2024-03-21 14:32:08.465
22.0, 187500.0, -185635.79745719404, 187500.0, -63761.54735822051, 187500.0, 187500.0, 187500.0, 187500.0, 0.07200000000000001, 0.022, 0.972, 192.0, 0.0, 0.0, 0.0, 0.0, 0.0, 0.0, 0.0, 0.0, 0.0, 1.711045928469201E9, 0.0, 2024-03-21 14:32:08.469
23.0, 187500.0, -185637.25032058364, 187500.0, -63789.17411436726, 187500.0, 187500.0, 187500.0, 187500.0, 0.07200000000000001, 0.022, 0.972, 192.0, 0.0, 0.0, 0.0, 0.0, 0.0, 0.0, 0.0, 0.0, 0.0, 1.711045928473195E9, 0.0, 2024-03-21 14:32:08.473
24.0, 187500.0, -185640.44662004075, 187500.0, -63791.25282660161, 187500.0, 187500.0, 187500.0, 187500.0, 0.07200000000000001, 0.022, 0.972, 192.0, 0.0, 0.0, 0.0, 0.0, 0.0, 0.0, 0.0, 0.0, 0.0, 1.711045928477208E9, 0.0, 2024-03-21 14:32:08.477
25.0, 187500.0, -185639.10551537343, 187500.0, -63773.61730022637, 187500.0, 187500.0, 187500.0, 187500.0, 0.07200000000000001, 0.022, 0.972, 192.0, 0.0, 0.0, 0.0, 0.0, 0.0, 0.0, 0.0, 0.0, 0.0, 1.711045928482263E9, 0.0, 2024-03-21 14:32:08.482
26.0, 187500.0, -185633.40582053733, 187500.0, -63768.655212957296, 187500.0, 187500.0, 187500.0, 187500.0, 0.07200000000000001, 0.022, 0.972, 192.0, 0.0, 0.0, 0.0, 0.0, 0.0, 0.0, 0.0, 0.0, 0.0, 1.711045928486239E9, 0.0, 2024-03-21 14:32:08.486
27.0, 187500.0, -185629.82954142446, 187500.0, -63794.67264350327, 187500.0, 187500.0, 187500.0, 187500.0, 0.07200000000000001, 0.022, 0.972, 192.0, 0.0, 0.0, 0.0, 0.0, 0.0, 0.0, 0.0, 0.0, 0.0, 1.711045928490258E9, 0.0, 2024-03-21 14:32:08.490
28.0, 187500.0, -185637.54089326155, 187500.0, -63808.687187276744, 187500.0, 187500.0, 187500.0, 187500.0, 0.07200000000000001, 0.026000000000000002, 0.972, 192.0, 2.0, 64.0, 0.0, 208.0, 30.0, 96.0, 0.0, 0.0, 0.0, 1.711045928493246E9, 0.0, 2024-03-21 14:32:08.493
29.0, 187500.0, -185648.22502711118, 187500.0, -63773.50554150409, 187500.0, 187500.0, 187500.0, 187500.0, 0.07200000000000001, 0.026000000000000002, 0.972, 192.0, 0.0, 0.0, 0.0, 0.0, 0.0, 0.0, 0.0, 0.0, 0.0, 1.71104592849724E9, 0.0, 2024-03-21 14:32:08.497
30.0, 187500.0, -185639.15021886234, 187500.0, -63753.07604707195, 187500.0, 187500.0, 187500.0, 187500.0, 0.07200000000000001, 0.026000000000000002, 0.972, 192.0, 0.0, 0.0, 0.0, 0.0, 0.0, 0.0, 0.0, 0.0, 0.0, 1.71104592850124E9, 0.0, 2024-03-21 14:32:08.501
31.0, 187500.0, -185625.5156547446, 187500.0, -63766.688259445225, 187500.0, 187500.0, 187500.0, 187500.0, 0.07200000000000001, 0.026000000000000002, 0.972, 192.0, 0.0, 0.0, 0.0, 0.0, 0.0, 0.0, 0.0, 0.0, 0.0, 1.711045928506276E9, 0.0, 2024-03-21 14:32:08.506
32.0, 187500.0, -185634.50105601564, 187500.0, -63777.14887585031, 187500.0, 187500.0, 187500.0, 187500.0, 0.07200000000000001, 0.026000000000000002, 0.972, 192.0, 0.0, 0.0, 0.0, 0.0, 0.0, 0.0, 0.0, 0.0, 0.0, 1.711045928510253E9, 0.0, 2024-03-21 14:32:08.510
33.0, 187500.0, -185632.33293680346, 187500.0, -63743.64361091181, 187500.0, 187500.0, 187500.0, 187500.0, 0.07200000000000001, 0.026000000000000002, 0.972, 192.0, 0.0, 0.0, 0.0, 0.0, 0.0, 0.0, 0.0, 0.0, 0.0, 1.711045928514253E9, 0.0, 2024-03-21 14:32:08.514
34.0, 187500.0, -185593.82088110698, 187500.0, -63719.54843038898, 187500.0, 187500.0, 187500.0, 187500.0, 0.07200000000000001, 0.026000000000000002, 0.972, 192.0, 0.0, 0.0, 0.0, 0.0, 0.0, 0.0, 0.0, 0.0, 0.0, 1.711045928518765E9, 0.0, 2024-03-21 14:32:08.518
35.0, 187500.0, -185645.20754160974, 187500.0, -63724.91284905826, 187500.0, 187500.0, 187500.0, 187500.0, 0.07200000000000001, 0.026000000000000002, 0.972, 192.0, 0.0, 0.0, 0.0, 0.0, 0.0, 0.0, 0.0, 0.0, 0.0, 1.711045928521257E9, 0.0, 2024-03-21 14:32:08.521
36.0, 187500.0, -185653.45533531372, 187500.0, -63755.26651802856, 187500.0, 187500.0, 187500.0, 187500.0, 0.07200000000000001, 0.026000000000000002, 0.972, 192.0, 0.0, 0.0, 0.0, 0.0, 0.0, 0.0, 0.0, 0.0, 0.0, 1.711045928525258E9, 0.0, 2024-03-21 14:32:08.525
37.0, 187500.0, -185644.24641659815, 187500.0, -63743.42009346725, 187500.0, 187500.0, 187500.0, 187500.0, 0.07200000000000001, 0.026000000000000002, 0.972, 192.0, 0.0, 0.0, 0.0, 0.0, 0.0, 0.0, 0.0, 0.0, 0.0, 1.711045928529309E9, 0.0, 2024-03-21 14:32:08.529
38.0, 187500.0, -185650.70607074574, 187500.0, -63706.87499128282, 187500.0, 187500.0, 187500.0, 187500.0, 0.07, 0.026000000000000002, 0.972, 192.0, 2.0, 48.0, 0.0, 208.0, 30.0, 96.0, 0.0, 0.0, 0.0, 1.711045928533305E9, 0.0, 2024-03-21 14:32:08.533
39.0, 187500.0, -185643.53116077557, 187500.0, -63719.05669201096, 187500.0, 187500.0, 187500.0, 187500.0, 0.07, 0.026000000000000002, 0.972, 192.0, 0.0, 0.0, 0.0, 0.0, 0.0, 0.0, 0.0, 0.0, 0.0, 1.711045928538275E9, 0.0, 2024-03-21 14:32:08.538
40.0, 187500.0, -185625.40389602233, 187500.0, -63738.83798585391, 187500.0, 187500.0, 187500.0, 187500.0, 0.07, 0.026000000000000002, 0.972, 192.0, 0.0, 0.0, 0.0, 0.0, 0.0, 0.0, 0.0, 0.0, 0.0, 1.711045928542284E9, 0.0, 2024-03-21 14:32:08.542
41.0, 187500.0, -185647.9121026888, 187500.0, -63731.12663401683, 187500.0, 187500.0, 187500.0, 187500.0, 0.07, 0.026000000000000002, 0.972, 192.0, 0.0, 0.0, 0.0, 0.0, 0.0, 0.0, 0.0, 0.0, 0.0, 1.711045928546279E9, 0.0, 2024-03-21 14:32:08.546
42.0, 187500.0, -185650.28138760108, 187500.0, -63702.002310991564, 187500.0, 187500.0, 187500.0, 187500.0, 0.07, 0.026000000000000002, 0.972, 192.0, 0.0, 0.0, 0.0, 0.0, 0.0, 0.0, 0.0, 0.0, 0.0, 1.711045928549304E9, 0.0, 2024-03-21 14:32:08.549
43.0, 187500.0, -185636.13273336086, 187500.0, -63698.26956966753, 187500.0, 187500.0, 187500.0, 187500.0, 0.07, 0.026000000000000002, 0.972, 192.0, 0.0, 0.0, 0.0, 0.0, 0.0, 0.0, 0.0, 0.0, 0.0, 1.711045928553303E9, 0.0, 2024-03-21 14:32:08.553
44.0, 187500.0, -185633.45052402624, 187500.0, -63743.93418358972, 187500.0, 187500.0, 187500.0, 187500.0, 0.07, 0.026000000000000002, 0.972, 192.0, 0.0, 0.0, 0.0, 0.0, 0.0, 0.0, 0.0, 0.0, 0.0, 1.711045928557295E9, 0.0, 2024-03-21 14:32:08.557
45.0, 187500.0, -185641.65361424134, 187500.0, -63744.71649464566, 187500.0, 187500.0, 187500.0, 187500.0, 0.07, 0.026000000000000002, 0.972, 192.0, 0.0, 0.0, 0.0, 0.0, 0.0, 0.0, 0.0, 0.0, 0.0, 1.711045928561328E9, 0.0, 2024-03-21 14:32:08.561
46.0, 187500.0, -185645.90044568785, 187500.0, -63733.85354684038, 187500.0, 187500.0, 187500.0, 187500.0, 0.07, 0.026000000000000002, 0.972, 192.0, 0.0, 0.0, 0.0, 0.0, 0.0, 0.0, 0.0, 0.0, 0.0, 1.711045928566331E9, 0.0, 2024-03-21 14:32:08.566
47.0, 187500.0, -185633.83050368197, 187500.0, -63740.62612541034, 187500.0, 187500.0, 187500.0, 187500.0, 0.07, 0.026000000000000002, 0.972, 192.0, 0.0, 0.0, 0.0, 0.0, 0.0, 0.0, 0.0, 0.0, 0.0, 1.711045928570343E9, 0.0, 2024-03-21 14:32:08.570
48.0, 187500.0, -185632.89173041485, 187500.0, -63781.86509393038, 187500.0, 187500.0, 187500.0, 187500.0, 0.068, 0.02, 0.972, 192.0, 2.0, 32.0, 0.0, 160.0, 30.0, 96.0, 0.0, 0.0, 0.0, 1.711045928574342E9, 0.0, 2024-03-21 14:32:08.574
49.0, 187500.0, -185636.51271301662, 187500.0, -63796.01374817059, 187500.0, 187500.0, 187500.0, 187500.0, 0.068, 0.02, 0.972, 192.0, 0.0, 0.0, 0.0, 0.0, 0.0, 0.0, 0.0, 0.0, 0.0, 1.71104592857733E9, 0.0, 2024-03-21 14:32:08.577
50.0, 187500.0, -185616.30673602902, 187500.0, -63764.36367802187, 187500.0, 187500.0, 187500.0, 187500.0, 0.068, 0.02, 0.972, 192.0, 0.0, 0.0, 0.0, 0.0, 0.0, 0.0, 0.0, 0.0, 0.0, 1.711045928581334E9, 0.0, 2024-03-21 14:32:08.581
51.0, 187500.0, -185635.46218102722, 187500.0, -63744.82825336794, 187500.0, 187500.0, 187500.0, 187500.0, 0.068, 0.02, 0.972, 192.0, 0.0, 0.0, 0.0, 0.0, 0.0, 0.0, 0.0, 0.0, 0.0, 1.711045928585333E9, 0.0, 2024-03-21 14:32:08.585
52.0, 187500.0, -185633.89755891534, 187500.0, -63767.55997747898, 187500.0, 187500.0, 187500.0, 187500.0, 0.068, 0.02, 0.972, 192.0, 0.0, 0.0, 0.0, 0.0, 0.0, 0.0, 0.0, 0.0, 0.0, 1.711045928589342E9, 0.0, 2024-03-21 14:32:08.589
53.0, 187500.0, -185637.67500372828, 187500.0, -63766.889425145324, 187500.0, 187500.0, 187500.0, 187500.0, 0.068, 0.02, 0.972, 192.0, 0.0, 0.0, 0.0, 0.0, 0.0, 0.0, 0.0, 0.0, 0.0, 1.711045928594346E9, 0.0, 2024-03-21 14:32:08.594
54.0, 187500.0, -185640.44662004075, 187500.0, -63723.08000601292, 187500.0, 187500.0, 187500.0, 187500.0, 0.068, 0.02, 0.972, 192.0, 0.0, 0.0, 0.0, 0.0, 0.0, 0.0, 0.0, 0.0, 0.0, 1.71104592859834E9, 0.0, 2024-03-21 14:32:08.598
55.0, 187500.0, -185636.53506476106, 187500.0, -63685.01498520553, 187500.0, 187500.0, 187500.0, 187500.0, 0.068, 0.02, 0.972, 192.0, 0.0, 0.0, 0.0, 0.0, 0.0, 0.0, 0.0, 0.0, 0.0, 1.711045928601328E9, 0.0, 2024-03-21 14:32:08.601
56.0, 187500.0, -185636.53506476106, 187500.0, -63707.36672966084, 187500.0, 187500.0, 187500.0, 187500.0, 0.068, 0.02, 0.972, 192.0, 0.0, 0.0, 0.0, 0.0, 0.0, 0.0, 0.0, 0.0, 0.0, 1.711045928605388E9, 0.0, 2024-03-21 14:32:08.605
57.0, 187500.0, -185628.60019547943, 187500.0, -63716.486241398605, 187500.0, 187500.0, 187500.0, 187500.0, 0.068, 0.02, 0.972, 192.0, 0.0, 0.0, 0.0, 0.0, 0.0, 0.0, 0.0, 0.0, 0.0, 1.711045928609374E9, 0.0, 2024-03-21 14:32:08.609
58.0, 187500.0, -185639.44079154026, 187500.0, -63670.39694433176, 187500.0, 187500.0, 187500.0, 187500.0, 0.066, 0.02, 0.974, 192.0, 2.0, 16.0, 0.0, 160.0, 30.0, 112.0, 0.0, 0.0, 0.0, 1.711045928613365E9, 0.0, 2024-03-21 14:32:08.613
59.0, 187500.0, -185621.7605616761, 187500.0, -63672.20743563264, 187500.0, 187500.0, 187500.0, 187500.0, 0.066, 0.02, 0.974, 192.0, 0.0, 0.0, 0.0, 0.0, 0.0, 0.0, 0.0, 0.0, 0.0, 1.71104592861737E9, 0.0, 2024-03-21 14:32:08.617
60.0, 187500.0, -185617.78195116305, 187500.0, -63714.9886745201, 187500.0, 187500.0, 187500.0, 187500.0, 0.066, 0.02, 0.974, 192.0, 0.0, 0.0, 0.0, 0.0, 0.0, 0.0, 0.0, 0.0, 0.0, 1.711045928621364E9, 0.0, 2024-03-21 14:32:08.621
61.0, 187500.0, -185623.50399774362, 187500.0, -63754.70772441718, 187500.0, 187500.0, 187500.0, 187500.0, 0.066, 0.02, 0.974, 192.0, 0.0, 0.0, 0.0, 0.0, 0.0, 0.0, 0.0, 0.0, 0.0, 1.711045928626389E9, 0.0, 2024-03-21 14:32:08.626
62.0, 187500.0, -185643.37469856438, 187500.0, -63749.87974761483, 187500.0, 187500.0, 187500.0, 187500.0, 0.066, 0.02, 0.974, 192.0, 0.0, 0.0, 0.0, 0.0, 0.0, 0.0, 0.0, 0.0, 0.0, 1.711045928629383E9, 0.0, 2024-03-21 14:32:08.629
63.0, 187500.0, -185613.9598028612, 187500.0, -63734.03236079602, 187500.0, 187500.0, 187500.0, 187500.0, 0.066, 0.02, 0.974, 192.0, 0.0, 0.0, 0.0, 0.0, 0.0, 0.0, 0.0, 0.0, 0.0, 1.711045928633356E9, 0.0, 2024-03-21 14:32:08.633
64.0, 187500.0, -185613.80334065002, 187500.0, -63761.56970996496, 187500.0, 187500.0, 187500.0, 187500.0, 0.066, 0.02, 0.974, 192.0, 0.0, 0.0, 0.0, 0.0, 0.0, 0.0, 0.0, 0.0, 0.0, 1.711045928637359E9, 0.0, 2024-03-21 14:32:08.637
65.0, 187500.0, -185645.3640038209, 187500.0, -63806.116736664386, 187500.0, 187500.0, 187500.0, 187500.0, 0.066, 0.02, 0.974, 192.0, 0.0, 0.0, 0.0, 0.0, 0.0, 0.0, 0.0, 0.0, 0.0, 1.711045928641404E9, 0.0, 2024-03-21 14:32:08.641
66.0, 187500.0, -185628.98017513516, 187500.0, -63814.87862049087, 187500.0, 187500.0, 187500.0, 187500.0, 0.066, 0.02, 0.974, 192.0, 0.0, 0.0, 0.0, 0.0, 0.0, 0.0, 0.0, 0.0, 0.0, 1.711045928645405E9, 0.0, 2024-03-21 14:32:08.645
67.0, 187500.0, -185630.85772166942, 187500.0, -63793.309187091494, 187500.0, 187500.0, 187500.0, 187500.0, 0.066, 0.02, 0.974, 192.0, 0.0, 0.0, 0.0, 0.0, 0.0, 0.0, 0.0, 0.0, 0.0, 1.711045928650365E9, 0.0, 2024-03-21 14:32:08.650
68.0, 187500.0, -185639.2172740957, 187500.0, -63810.028291944065, 187500.0, 187500.0, 187500.0, 187500.0, 0.066, 0.022, 0.978, 192.0, 2.0, 16.0, 0.0, 176.0, 30.0, 144.0, 0.0, 0.0, 0.0, 1.711045928654411E9, 0.0, 2024-03-21 14:32:08.654
69.0, 187500.0, -185639.48549502916, 187500.0, -63859.33624021248, 187500.0, 187500.0, 187500.0, 187500.0, 0.066, 0.022, 0.978, 192.0, 0.0, 0.0, 0.0, 0.0, 0.0, 0.0, 0.0, 0.0, 0.0, 1.711045928657404E9, 0.0, 2024-03-21 14:32:08.657
70.0, 187500.0, -185632.55645424803, 187500.0, -63861.25849023563, 187500.0, 187500.0, 187500.0, 187500.0, 0.066, 0.022, 0.978, 192.0, 0.0, 0.0, 0.0, 0.0, 0.0, 0.0, 0.0, 0.0, 0.0, 1.711045928661405E9, 0.0, 2024-03-21 14:32:08.661
71.0, 187500.0, -185628.48843675715, 187500.0, -63831.284800921065, 187500.0, 187500.0, 187500.0, 187500.0, 0.066, 0.022, 0.978, 192.0, 0.0, 0.0, 0.0, 0.0, 0.0, 0.0, 0.0, 0.0, 0.0, 1.711045928665407E9, 0.0, 2024-03-21 14:32:08.665
72.0, 187500.0, -185621.60409946492, 187500.0, -63820.28774264905, 187500.0, 187500.0, 187500.0, 187500.0, 0.066, 0.022, 0.978, 192.0, 0.0, 0.0, 0.0, 0.0, 0.0, 0.0, 0.0, 0.0, 0.0, 1.711045928669417E9, 0.0, 2024-03-21 14:32:08.669
73.0, 187500.0, -185641.09482062995, 187500.0, -63844.11470223841, 187500.0, 187500.0, 187500.0, 187500.0, 0.066, 0.022, 0.978, 192.0, 0.0, 0.0, 0.0, 0.0, 0.0, 0.0, 0.0, 0.0, 0.0, 1.711045928673486E9, 0.0, 2024-03-21 14:32:08.673
74.0, 187500.0, -185640.98306190767, 187500.0, -63863.94069957027, 187500.0, 187500.0, 187500.0, 187500.0, 0.066, 0.022, 0.978, 192.0, 0.0, 0.0, 0.0, 0.0, 0.0, 0.0, 0.0, 0.0, 0.0, 1.71104592867742E9, 0.0, 2024-03-21 14:32:08.677
75.0, 187500.0, -185630.23187282466, 187500.0, -63818.901934492824, 187500.0, 187500.0, 187500.0, 187500.0, 0.066, 0.022, 0.978, 192.0, 0.0, 0.0, 0.0, 0.0, 0.0, 0.0, 0.0, 0.0, 0.0, 1.711045928682417E9, 0.0, 2024-03-21 14:32:08.682
76.0, 187500.0, -185636.11038161643, 187500.0, -63786.536608521536, 187500.0, 187500.0, 187500.0, 187500.0, 0.066, 0.022, 0.978, 192.0, 0.0, 0.0, 0.0, 0.0, 0.0, 0.0, 0.0, 0.0, 0.0, 1.711045928685419E9, 0.0, 2024-03-21 14:32:08.685
77.0, 187500.0, -185625.00156462213, 187500.0, -63803.0098441851, 187500.0, 187500.0, 187500.0, 187500.0, 0.066, 0.022, 0.978, 192.0, 0.0, 0.0, 0.0, 0.0, 0.0, 0.0, 0.0, 0.0, 0.0, 1.711045928689418E9, 0.0, 2024-03-21 14:32:08.689
78.0, 187500.0, -185629.94130014675, 187500.0, -63814.364530368395, 187500.0, 187500.0, 187500.0, 187500.0, 0.066, 0.016, 0.974, 192.0, 2.0, 16.0, 0.0, 128.0, 30.0, 112.0, 0.0, 0.0, 0.0, 1.711045928693424E9, 0.0, 2024-03-21 14:32:08.693
79.0, 187500.0, -185637.13856186136, 187500.0, -63768.4540472572, 187500.0, 187500.0, 187500.0, 187500.0, 0.066, 0.016, 0.974, 192.0, 0.0, 0.0, 0.0, 0.0, 0.0, 0.0, 0.0, 0.0, 0.0, 1.711045928697431E9, 0.0, 2024-03-21 14:32:08.697
80.0, 187500.0, -185642.45827704173, 187500.0, -63733.25004974008, 187500.0, 187500.0, 187500.0, 187500.0, 0.066, 0.016, 0.974, 192.0, 0.0, 0.0, 0.0, 0.0, 0.0, 0.0, 0.0, 0.0, 0.0, 1.711045928701424E9, 0.0, 2024-03-21 14:32:08.701
81.0, 187500.0, -185629.53896874655, 187500.0, -63740.78258762153, 187500.0, 187500.0, 187500.0, 187500.0, 0.066, 0.016, 0.974, 192.0, 0.0, 0.0, 0.0, 0.0, 0.0, 0.0, 0.0, 0.0, 0.0, 1.711045928705464E9, 0.0, 2024-03-21 14:32:08.705
82.0, 187500.0, -185633.31641355949, 187500.0, -63765.704782689194, 187500.0, 187500.0, 187500.0, 187500.0, 0.066, 0.016, 0.974, 192.0, 0.0, 0.0, 0.0, 0.0, 0.0, 0.0, 0.0, 0.0, 0.0, 1.711045928709475E9, 0.0, 2024-03-21 14:32:08.709
83.0, 187500.0, -185643.64291949786, 187500.0, -63743.129520789334, 187500.0, 187500.0, 187500.0, 187500.0, 0.066, 0.016, 0.974, 192.0, 0.0, 0.0, 0.0, 0.0, 0.0, 0.0, 0.0, 0.0, 0.0, 1.711045928712466E9, 0.0, 2024-03-21 14:32:08.712
84.0, 187500.0, -185638.27850082857, 187500.0, -63714.89926754228, 187500.0, 187500.0, 187500.0, 187500.0, 0.066, 0.016, 0.974, 192.0, 0.0, 0.0, 0.0, 0.0, 0.0, 0.0, 0.0, 0.0, 0.0, 1.711045928717465E9, 0.0, 2024-03-21 14:32:08.717
85.0, 187500.0, -185621.55939597602, 187500.0, -63723.01295077956, 187500.0, 187500.0, 187500.0, 187500.0, 0.066, 0.016, 0.974, 192.0, 0.0, 0.0, 0.0, 0.0, 0.0, 0.0, 0.0, 0.0, 0.0, 1.711045928721462E9, 0.0, 2024-03-21 14:32:08.721
86.0, 187500.0, -185620.88884364234, 187500.0, -63744.180052778735, 187500.0, 187500.0, 187500.0, 187500.0, 0.066, 0.016, 0.974, 192.0, 0.0, 0.0, 0.0, 0.0, 0.0, 0.0, 0.0, 0.0, 0.0, 1.711045928725466E9, 0.0, 2024-03-21 14:32:08.725
87.0, 187500.0, -185648.00150966665, 187500.0, -63727.550354903986, 187500.0, 187500.0, 187500.0, 187500.0, 0.066, 0.016, 0.974, 192.0, 0.0, 0.0, 0.0, 0.0, 0.0, 0.0, 0.0, 0.0, 0.0, 1.711045928729469E9, 0.0, 2024-03-21 14:32:08.729
88.0, 187500.0, -185641.3630415634, 187500.0, -63693.88862775429, 187500.0, 187500.0, 187500.0, 187500.0, 0.058, 0.02, 0.978, 192.0, 1.0, 208.0, 0.0, 160.0, 30.0, 144.0, 0.0, 0.0, 0.0, 1.711045928733469E9, 0.0, 2024-03-21 14:32:08.733
89.0, 187500.0, -185627.99669837914, 187500.0, -63696.97316848912, 187500.0, 187500.0, 187500.0, 187500.0, 0.058, 0.02, 0.978, 192.0, 0.0, 0.0, 0.0, 0.0, 0.0, 0.0, 0.0, 0.0, 0.0, 1.711045928737468E9, 0.0, 2024-03-21 14:32:08.737
90.0, 187500.0, -185634.79162869355, 187500.0, -63728.310314215465, 187500.0, 187500.0, 187500.0, 187500.0, 0.058, 0.02, 0.978, 192.0, 0.0, 0.0, 0.0, 0.0, 0.0, 0.0, 0.0, 0.0, 0.0, 1.711045928740506E9, 0.0, 2024-03-21 14:32:08.740
91.0, 187500.0, -185643.84408519795, 187500.0, -63719.28020945552, 187500.0, 187500.0, 187500.0, 187500.0, 0.058, 0.02, 0.978, 192.0, 0.0, 0.0, 0.0, 0.0, 0.0, 0.0, 0.0, 0.0, 0.0, 1.711045928744511E9, 0.0, 2024-03-21 14:32:08.744
92.0, 187500.0, -185653.05300391355, 187500.0, -63680.94696771467, 187500.0, 187500.0, 187500.0, 187500.0, 0.058, 0.02, 0.978, 192.0, 0.0, 0.0, 0.0, 0.0, 0.0, 0.0, 0.0, 0.0, 0.0, 1.711045928749514E9, 0.0, 2024-03-21 14:32:08.749
93.0, 187500.0, -185640.08899212946, 187500.0, -63669.592281531375, 187500.0, 187500.0, 187500.0, 187500.0, 0.058, 0.02, 0.978, 192.0, 0.0, 0.0, 0.0, 0.0, 0.0, 0.0, 0.0, 0.0, 0.0, 1.711045928753513E9, 0.0, 2024-03-21 14:32:08.753
94.0, 187500.0, -185640.24545434065, 187500.0, -63702.22582843612, 187500.0, 187500.0, 187500.0, 187500.0, 0.058, 0.02, 0.978, 192.0, 0.0, 0.0, 0.0, 0.0, 0.0, 0.0, 0.0, 0.0, 0.0, 1.711045928757508E9, 0.0, 2024-03-21 14:32:08.757
95.0, 187500.0, -185658.48447781618, 187500.0, -63710.09364248439, 187500.0, 187500.0, 187500.0, 187500.0, 0.058, 0.02, 0.978, 192.0, 0.0, 0.0, 0.0, 0.0, 0.0, 0.0, 0.0, 0.0, 0.0, 1.711045928761512E9, 0.0, 2024-03-21 14:32:08.761
96.0, 187500.0, -185642.83825669746, 187500.0, -63677.7283165131, 187500.0, 187500.0, 187500.0, 187500.0, 0.058, 0.02, 0.978, 192.0, 0.0, 0.0, 0.0, 0.0, 0.0, 0.0, 0.0, 0.0, 0.0, 1.711045928765511E9, 0.0, 2024-03-21 14:32:08.765
97.0, 187500.0, -185624.62158496637, 187500.0, -63685.730241028105, 187500.0, 187500.0, 187500.0, 187500.0, 0.058, 0.02, 0.978, 192.0, 0.0, 0.0, 0.0, 0.0, 0.0, 0.0, 0.0, 0.0, 0.0, 1.711045928768507E9, 0.0, 2024-03-21 14:32:08.768
98.0, 187500.0, -185649.02968991158, 187500.0, -63728.71264561566, 187500.0, 187500.0, 187500.0, 187500.0, 0.064, 0.022, 0.98, 192.0, 2.0, 0.0, 0.0, 176.0, 30.0, 160.0, 0.0, 0.0, 0.0, 1.711045928773508E9, 0.0, 2024-03-21 14:32:08.773
99.0, 187500.0, -185683.16080369483, 187500.0, -63748.38218073633, 187500.0, 187500.0, 187500.0, 187500.0, 0.064, 0.022, 0.98, 192.0, 0.0, 0.0, 0.0, 0.0, 0.0, 0.0, 0.0, 0.0, 0.0, 1.711045928777508E9, 0.0, 2024-03-21 14:32:08.777
100.0, 187500.0, -185648.5155997891, 187500.0, -63739.217965509655, 187500.0, 187500.0, 187500.0, 187500.0, 0.064, 0.022, 0.98, 192.0, 0.0, 0.0, 0.0, 0.0, 0.0, 0.0, 0.0, 0.0, 0.0, 1.711045928781504E9, 0.0, 2024-03-21 14:32:08.781
101.0, 187500.0, -185633.36111704842, 187500.0, -63726.36571244785, 187500.0, 187500.0, 187500.0, 187500.0, 0.064, 0.022, 0.98, 192.0, 0.0, 0.0, 0.0, 0.0, 0.0, 0.0, 0.0, 0.0, 0.0, 1.711045928785505E9, 0.0, 2024-03-21 14:32:08.785
102.0, 187500.0, -185624.2639570551, 187500.0, -63757.76991340756, 187500.0, 187500.0, 187500.0, 187500.0, 0.064, 0.022, 0.98, 192.0, 0.0, 0.0, 0.0, 0.0, 0.0, 0.0, 0.0, 0.0, 0.0, 1.711045928789548E9, 0.0, 2024-03-21 14:32:08.789
103.0, 187500.0, -185635.68569847176, 187500.0, -63776.99241363912, 187500.0, 187500.0, 187500.0, 187500.0, 0.064, 0.022, 0.98, 192.0, 0.0, 0.0, 0.0, 0.0, 0.0, 0.0, 0.0, 0.0, 0.0, 1.711045928793546E9, 0.0, 2024-03-21 14:32:08.793
104.0, 187500.0, -185648.1579718778, 187500.0, -63749.276250514544, 187500.0, 187500.0, 187500.0, 187500.0, 0.064, 0.022, 0.98, 192.0, 0.0, 0.0, 0.0, 0.0, 0.0, 0.0, 0.0, 0.0, 0.0, 1.711045928796545E9, 0.0, 2024-03-21 14:32:08.796
105.0, 187500.0, -185625.3144890445, 187500.0, -63727.70681711517, 187500.0, 187500.0, 187500.0, 187500.0, 0.064, 0.022, 0.98, 192.0, 0.0, 0.0, 0.0, 0.0, 0.0, 0.0, 0.0, 0.0, 0.0, 1.711045928800542E9, 0.0, 2024-03-21 14:32:08.800
106.0, 187500.0, -185619.97242211967, 187500.0, -63757.81461689647, 187500.0, 187500.0, 187500.0, 187500.0, 0.064, 0.022, 0.98, 192.0, 0.0, 0.0, 0.0, 0.0, 0.0, 0.0, 0.0, 0.0, 0.0, 1.711045928805543E9, 0.0, 2024-03-21 14:32:08.805
107.0, 187500.0, -185643.6652712423, 187500.0, -63786.04487014352, 187500.0, 187500.0, 187500.0, 187500.0, 0.064, 0.026000000000000002, 0.974, 192.0, 2.0, 0.0, 0.0, 208.0, 30.0, 112.0, 0.0, 0.0, 0.0, 1.71104592880954E9, 0.0, 2024-03-21 14:32:08.809
108.0, 187500.0, -185637.36207930592, 187500.0, -63766.86707340087, 187500.0, 187500.0, 187500.0, 187500.0, 0.064, 0.026000000000000002, 0.974, 192.0, 0.0, 0.0, 0.0, 0.0, 0.0, 0.0, 0.0, 0.0, 0.0, 1.711045928813543E9, 0.0, 2024-03-21 14:32:08.813
109.0, 187500.0, -185622.20759656522, 187500.0, -63751.22085228215, 187500.0, 187500.0, 187500.0, 187500.0, 0.064, 0.026000000000000002, 0.974, 192.0, 0.0, 0.0, 0.0, 0.0, 0.0, 0.0, 0.0, 0.0, 0.0, 1.711045928817542E9, 0.0, 2024-03-21 14:32:08.817
110.0, 187500.0, -185638.94905316224, 187500.0, -63757.032305840534, 187500.0, 187500.0, 187500.0, 187500.0, 0.064, 0.026000000000000002, 0.974, 192.0, 0.0, 0.0, 0.0, 0.0, 0.0, 0.0, 0.0, 0.0, 0.0, 1.711045928821542E9, 0.0, 2024-03-21 14:32:08.821
111.0, 187500.0, -185639.48549502916, 187500.0, -63791.923378935266, 187500.0, 187500.0, 187500.0, 187500.0, 0.064, 0.026000000000000002, 0.974, 192.0, 0.0, 0.0, 0.0, 0.0, 0.0, 0.0, 0.0, 0.0, 0.0, 1.711045928824547E9, 0.0, 2024-03-21 14:32:08.824
112.0, 187500.0, -185629.71778270218, 187500.0, -63775.65130897181, 187500.0, 187500.0, 187500.0, 187500.0, 0.064, 0.026000000000000002, 0.974, 192.0, 0.0, 0.0, 0.0, 0.0, 0.0, 0.0, 0.0, 0.0, 0.0, 1.711045928828585E9, 0.0, 2024-03-21 14:32:08.828
113.0, 187500.0, -185629.315451302, 187500.0, -63738.21213700916, 187500.0, 187500.0, 187500.0, 187500.0, 0.064, 0.026000000000000002, 0.974, 192.0, 0.0, 0.0, 0.0, 0.0, 0.0, 0.0, 0.0, 0.0, 0.0, 1.711045928833588E9, 0.0, 2024-03-21 14:32:08.833
114.0, 187500.0, -185647.88975094436, 187500.0, -63724.48816591361, 187500.0, 187500.0, 187500.0, 187500.0, 0.064, 0.026000000000000002, 0.974, 192.0, 0.0, 0.0, 0.0, 0.0, 0.0, 0.0, 0.0, 0.0, 0.0, 1.711045928837596E9, 0.0, 2024-03-21 14:32:08.837
115.0, 187500.0, -185654.39410858086, 187500.0, -63770.08572460243, 187500.0, 187500.0, 187500.0, 187500.0, 0.064, 0.026000000000000002, 0.974, 192.0, 0.0, 0.0, 0.0, 0.0, 0.0, 0.0, 0.0, 0.0, 0.0, 1.711045928841615E9, 0.0, 2024-03-21 14:32:08.841
116.0, 187500.0, -185629.38250653536, 187500.0, -63756.74173316261, 187500.0, 187500.0, 187500.0, 187500.0, 0.064, 0.026000000000000002, 0.974, 192.0, 0.0, 0.0, 0.0, 0.0, 0.0, 0.0, 0.0, 0.0, 0.0, 1.711045928844612E9, 0.0, 2024-03-21 14:32:08.844
117.0, 187500.0, -185631.39416353634, 187500.0, -63716.57564837643, 187500.0, 187500.0, 187500.0, 187500.0, 0.064, 0.024, 0.976, 192.0, 2.0, 0.0, 0.0, 192.0, 30.0, 128.0, 0.0, 0.0, 0.0, 1.7110459288486E9, 0.0, 2024-03-21 14:32:08.848
118.0, 187500.0, -185630.94712864724, 187500.0, -63699.163639445746, 187500.0, 187500.0, 187500.0, 187500.0, 0.064, 0.024, 0.976, 192.0, 0.0, 0.0, 0.0, 0.0, 0.0, 0.0, 0.0, 0.0, 0.0, 1.711045928852603E9, 0.0, 2024-03-21 14:32:08.852
119.0, 187500.0, -185628.57784373497, 187500.0, -63730.16550900525, 187500.0, 187500.0, 187500.0, 187500.0, 0.064, 0.024, 0.976, 192.0, 0.0, 0.0, 0.0, 0.0, 0.0, 0.0, 0.0, 0.0, 0.0, 1.71104592885659E9, 0.0, 2024-03-21 14:32:08.856
120.0, 187500.0, -185631.93060540326, 187500.0, -63742.19074752221, 187500.0, 187500.0, 187500.0, 187500.0, 0.064, 0.024, 0.976, 192.0, 0.0, 0.0, 0.0, 0.0, 0.0, 0.0, 0.0, 0.0, 0.0, 1.711045928861612E9, 0.0, 2024-03-21 14:32:08.861
121.0, 187500.0, -185634.56811124898, 187500.0, -63713.66992159724, 187500.0, 187500.0, 187500.0, 187500.0, 0.064, 0.024, 0.976, 192.0, 0.0, 0.0, 0.0, 0.0, 0.0, 0.0, 0.0, 0.0, 0.0, 1.711045928865614E9, 0.0, 2024-03-21 14:32:08.865
122.0, 187500.0, -185626.47677975617, 187500.0, -63702.717566814135, 187500.0, 187500.0, 187500.0, 187500.0, 0.064, 0.024, 0.976, 192.0, 0.0, 0.0, 0.0, 0.0, 0.0, 0.0, 0.0, 0.0, 0.0, 1.711045928869594E9, 0.0, 2024-03-21 14:32:08.869
123.0, 187500.0, -185628.71195420172, 187500.0, -63733.45121544018, 187500.0, 187500.0, 187500.0, 187500.0, 0.064, 0.024, 0.976, 192.0, 0.0, 0.0, 0.0, 0.0, 0.0, 0.0, 0.0, 0.0, 0.0, 1.711045928872597E9, 0.0, 2024-03-21 14:32:08.872
124.0, 187500.0, -185638.34555606195, 187500.0, -63744.15770103427, 187500.0, 187500.0, 187500.0, 187500.0, 0.064, 0.024, 0.976, 192.0, 0.0, 0.0, 0.0, 0.0, 0.0, 0.0, 0.0, 0.0, 0.0, 1.711045928876593E9, 0.0, 2024-03-21 14:32:08.876
125.0, 187500.0, -185647.2639020996, 187500.0, -63715.03337800901, 187500.0, 187500.0, 187500.0, 187500.0, 0.064, 0.024, 0.976, 192.0, 0.0, 0.0, 0.0, 0.0, 0.0, 0.0, 0.0, 0.0, 0.0, 1.711045928880603E9, 0.0, 2024-03-21 14:32:08.880
126.0, 187500.0, -185640.08899212946, 187500.0, -63686.40079336176, 187500.0, 187500.0, 187500.0, 187500.0, 0.064, 0.024, 0.976, 192.0, 0.0, 0.0, 0.0, 0.0, 0.0, 0.0, 0.0, 0.0, 0.0, 1.711045928884697E9, 0.0, 2024-03-21 14:32:08.884
127.0, 187500.0, -185643.12882937538, 187500.0, -63690.826438763914, 187500.0, 187500.0, 187500.0, 187500.0, 0.068, 0.018000000000000002, 0.974, 192.0, 2.0, 32.0, 0.0, 144.0, 30.0, 112.0, 0.0, 0.0, 0.0, 1.711045928889698E9, 0.0, 2024-03-21 14:32:08.889
128.0, 187500.0, -185703.27737370462, 187500.0, -63700.66120632425, 187500.0, 187500.0, 187500.0, 187500.0, 0.068, 0.018000000000000002, 0.974, 192.0, 0.0, 0.0, 0.0, 0.0, 0.0, 0.0, 0.0, 0.0, 0.0, 1.711045928893699E9, 0.0, 2024-03-21 14:32:08.893
129.0, 187500.0, -185655.28817835907, 187500.0, -63697.57666558942, 187500.0, 187500.0, 187500.0, 187500.0, 0.068, 0.018000000000000002, 0.974, 192.0, 0.0, 0.0, 0.0, 0.0, 0.0, 0.0, 0.0, 0.0, 0.0, 1.711045928897702E9, 0.0, 2024-03-21 14:32:08.897
130.0, 187500.0, -185589.86462233838, 187500.0, -63661.59035701637, 187500.0, 187500.0, 187500.0, 187500.0, 0.068, 0.018000000000000002, 0.974, 192.0, 0.0, 0.0, 0.0, 0.0, 0.0, 0.0, 0.0, 0.0, 0.0, 1.711045928900696E9, 0.0, 2024-03-21 14:32:08.900
131.0, 187500.0, -185620.55356747552, 187500.0, -63664.40667681774, 187500.0, 187500.0, 187500.0, 187500.0, 0.068, 0.018000000000000002, 0.974, 192.0, 0.0, 0.0, 0.0, 0.0, 0.0, 0.0, 0.0, 0.0, 0.0, 1.711045928904694E9, 0.0, 2024-03-21 14:32:08.904
132.0, 187500.0, -185631.66238446982, 187500.0, -63680.58933980338, 187500.0, 187500.0, 187500.0, 187500.0, 0.068, 0.018000000000000002, 0.974, 192.0, 0.0, 0.0, 0.0, 0.0, 0.0, 0.0, 0.0, 0.0, 0.0, 1.711045928908699E9, 0.0, 2024-03-21 14:32:08.908
133.0, 187500.0, -185642.99471890865, 187500.0, -63661.25508084954, 187500.0, 187500.0, 187500.0, 187500.0, 0.068, 0.018000000000000002, 0.974, 192.0, 0.0, 0.0, 0.0, 0.0, 0.0, 0.0, 0.0, 0.0, 0.0, 1.711045928912703E9, 0.0, 2024-03-21 14:32:08.912
134.0, 187500.0, -185644.29112008706, 187500.0, -63642.21139457362, 187500.0, 187500.0, 187500.0, 187500.0, 0.068, 0.018000000000000002, 0.974, 192.0, 0.0, 0.0, 0.0, 0.0, 0.0, 0.0, 0.0, 0.0, 0.0, 1.711045928916701E9, 0.0, 2024-03-21 14:32:08.916
135.0, 187500.0, -185631.39416353634, 187500.0, -63662.596185516864, 187500.0, 187500.0, 187500.0, 187500.0, 0.068, 0.018000000000000002, 0.974, 192.0, 0.0, 0.0, 0.0, 0.0, 0.0, 0.0, 0.0, 0.0, 0.0, 1.7110459289217E9, 0.0, 2024-03-21 14:32:08.921
136.0, 187500.0, -185623.03461111005, 187500.0, -63715.36865417584, 187500.0, 187500.0, 187500.0, 187500.0, 0.068, 0.018000000000000002, 0.974, 192.0, 0.0, 0.0, 0.0, 0.0, 0.0, 0.0, 0.0, 0.0, 0.0, 1.711045928925696E9, 0.0, 2024-03-21 14:32:08.925
137.0, 187500.0, -185639.99958515164, 187500.0, -63720.93423854521, 187500.0, 187500.0, 187500.0, 187500.0, 0.07200000000000001, 0.022, 0.978, 192.0, 2.0, 64.0, 0.0, 176.0, 30.0, 144.0, 0.0, 0.0, 0.0, 1.711045928928696E9, 0.0, 2024-03-21 14:32:08.928
138.0, 187500.0, -185617.24550929613, 187500.0, -63708.104337227865, 187500.0, 187500.0, 187500.0, 187500.0, 0.07200000000000001, 0.022, 0.978, 192.0, 0.0, 0.0, 0.0, 0.0, 0.0, 0.0, 0.0, 0.0, 0.0, 1.711045928932703E9, 0.0, 2024-03-21 14:32:08.932
139.0, 187500.0, -185612.88691912734, 187500.0, -63733.00418055108, 187500.0, 187500.0, 187500.0, 187500.0, 0.07200000000000001, 0.022, 0.978, 192.0, 0.0, 0.0, 0.0, 0.0, 0.0, 0.0, 0.0, 0.0, 0.0, 1.711045928936695E9, 0.0, 2024-03-21 14:32:08.936
140.0, 187500.0, -185623.92868088826, 187500.0, -63785.217855598676, 187500.0, 187500.0, 187500.0, 187500.0, 0.07200000000000001, 0.022, 0.978, 192.0, 0.0, 0.0, 0.0, 0.0, 0.0, 0.0, 0.0, 0.0, 0.0, 1.711045928940699E9, 0.0, 2024-03-21 14:32:08.940
141.0, 187500.0, -185641.1171723744, 187500.0, -63806.42966108676, 187500.0, 187500.0, 187500.0, 187500.0, 0.07200000000000001, 0.022, 0.978, 192.0, 0.0, 0.0, 0.0, 0.0, 0.0, 0.0, 0.0, 0.0, 0.0, 1.711045928944696E9, 0.0, 2024-03-21 14:32:08.944
142.0, 187500.0, -185645.63222475437, 187500.0, -63792.281006846555, 187500.0, 187500.0, 187500.0, 187500.0, 0.07200000000000001, 0.022, 0.978, 192.0, 0.0, 0.0, 0.0, 0.0, 0.0, 0.0, 0.0, 0.0, 0.0, 1.711045928949699E9, 0.0, 2024-03-21 14:32:08.949
143.0, 187500.0, -185625.9179861448, 187500.0, -63791.02930915706, 187500.0, 187500.0, 187500.0, 187500.0, 0.07200000000000001, 0.022, 0.978, 192.0, 0.0, 0.0, 0.0, 0.0, 0.0, 0.0, 0.0, 0.0, 0.0, 1.711045928953694E9, 0.0, 2024-03-21 14:32:08.953
144.0, 187500.0, -185618.89953838583, 187500.0, -63817.67258854778, 187500.0, 187500.0, 187500.0, 187500.0, 0.07200000000000001, 0.022, 0.978, 192.0, 0.0, 0.0, 0.0, 0.0, 0.0, 0.0, 0.0, 0.0, 0.0, 1.711045928956747E9, 0.0, 2024-03-21 14:32:08.956
145.0, 187500.0, -185631.88590191436, 187500.0, -63834.704617822725, 187500.0, 187500.0, 187500.0, 187500.0, 0.07200000000000001, 0.022, 0.978, 192.0, 0.0, 0.0, 0.0, 0.0, 0.0, 0.0, 0.0, 0.0, 0.0, 1.711045928960709E9, 0.0, 2024-03-21 14:32:08.960
146.0, 187500.0, -185633.42817228177, 187500.0, -63794.53853303654, 187500.0, 187500.0, 187500.0, 187500.0, 0.07200000000000001, 0.022, 0.978, 192.0, 0.0, 0.0, 0.0, 0.0, 0.0, 0.0, 0.0, 0.0, 0.0, 1.711045928964708E9, 0.0, 2024-03-21 14:32:08.964
147.0, 187500.0, -185628.48843675715, 187500.0, -63778.93701540674, 187500.0, 187500.0, 187500.0, 187500.0, 0.074, 0.024, 0.978, 192.0, 2.0, 80.0, 0.0, 192.0, 30.0, 144.0, 0.0, 0.0, 0.0, 1.711045928968686E9, 0.0, 2024-03-21 14:32:08.968
148.0, 187500.0, -185646.99568116615, 187500.0, -63796.9078179488, 187500.0, 187500.0, 187500.0, 187500.0, 0.074, 0.024, 0.978, 192.0, 0.0, 0.0, 0.0, 0.0, 0.0, 0.0, 0.0, 0.0, 0.0, 1.7110459289727E9, 0.0, 2024-03-21 14:32:08.972
149.0, 187500.0, -185646.4592392992, 187500.0, -63815.34800712443, 187500.0, 187500.0, 187500.0, 187500.0, 0.074, 0.024, 0.978, 192.0, 0.0, 0.0, 0.0, 0.0, 0.0, 0.0, 0.0, 0.0, 0.0, 1.711045928977722E9, 0.0, 2024-03-21 14:32:08.977
150.0, 187500.0, -185630.76831469158, 187500.0, -63776.07599211646, 187500.0, 187500.0, 187500.0, 187500.0, 0.074, 0.024, 0.978, 192.0, 0.0, 0.0, 0.0, 0.0, 0.0, 0.0, 0.0, 0.0, 0.0, 1.711045928980731E9, 0.0, 2024-03-21 14:32:08.980
151.0, 187500.0, -185633.18230309276, 187500.0, -63737.22866025313, 187500.0, 187500.0, 187500.0, 187500.0, 0.074, 0.024, 0.978, 192.0, 0.0, 0.0, 0.0, 0.0, 0.0, 0.0, 0.0, 0.0, 0.0, 1.711045928984718E9, 0.0, 2024-03-21 14:32:08.984
152.0, 187500.0, -185621.17941632026, 187500.0, -63742.95070683369, 187500.0, 187500.0, 187500.0, 187500.0, 0.074, 0.024, 0.978, 192.0, 0.0, 0.0, 0.0, 0.0, 0.0, 0.0, 0.0, 0.0, 0.0, 1.711045928988718E9, 0.0, 2024-03-21 14:32:08.988
153.0, 187500.0, -185636.40095429434, 187500.0, -63757.99343085211, 187500.0, 187500.0, 187500.0, 187500.0, 0.074, 0.024, 0.978, 192.0, 0.0, 0.0, 0.0, 0.0, 0.0, 0.0, 0.0, 0.0, 0.0, 1.711045928992721E9, 0.0, 2024-03-21 14:32:08.992
154.0, 187500.0, -185643.15118111984, 187500.0, -63733.9429538182, 187500.0, 187500.0, 187500.0, 187500.0, 0.074, 0.024, 0.978, 192.0, 0.0, 0.0, 0.0, 0.0, 0.0, 0.0, 0.0, 0.0, 0.0, 1.711045928996719E9, 0.0, 2024-03-21 14:32:08.996
155.0, 187500.0, -185619.74890467513, 187500.0, -63710.49597388459, 187500.0, 187500.0, 187500.0, 187500.0, 0.074, 0.024, 0.978, 192.0, 0.0, 0.0, 0.0, 0.0, 0.0, 0.0, 0.0, 0.0, 0.0, 1.711045929000769E9, 0.0, 2024-03-21 14:32:09.000
156.0, 187500.0, -185616.4184947513, 187500.0, -63719.61548562235, 187500.0, 187500.0, 187500.0, 187500.0, 0.074, 0.024, 0.978, 192.0, 0.0, 0.0, 0.0, 0.0, 0.0, 0.0, 0.0, 0.0, 0.0, 1.711045929005768E9, 0.0, 2024-03-21 14:32:09.005
157.0, 187500.0, -185624.4651227552, 187500.0, -63755.154759306286, 187500.0, 187500.0, 187500.0, 187500.0, 0.068, 0.028, 0.978, 192.0, 2.0, 32.0, 0.0, 224.0, 30.0, 144.0, 0.0, 0.0, 0.0, 1.711045929008759E9, 0.0, 2024-03-21 14:32:09.008
158.0, 187500.0, -185644.02289915358, 187500.0, -63750.550299948496, 187500.0, 187500.0, 187500.0, 187500.0, 0.068, 0.028, 0.978, 192.0, 0.0, 0.0, 0.0, 0.0, 0.0, 0.0, 0.0, 0.0, 0.0, 1.711045929011755E9, 0.0, 2024-03-21 14:32:09.011
159.0, 187500.0, -185643.061774142, 187500.0, -63732.57949740643, 187500.0, 187500.0, 187500.0, 187500.0, 0.068, 0.028, 0.978, 192.0, 0.0, 0.0, 0.0, 0.0, 0.0, 0.0, 0.0, 0.0, 0.0, 1.711045929016755E9, 0.0, 2024-03-21 14:32:09.016
160.0, 187500.0, -185622.34170703194, 187500.0, -63750.460892970674, 187500.0, 187500.0, 187500.0, 187500.0, 0.068, 0.028, 0.978, 192.0, 0.0, 0.0, 0.0, 0.0, 0.0, 0.0, 0.0, 0.0, 0.0, 1.711045929020753E9, 0.0, 2024-03-21 14:32:09.020
161.0, 187500.0, -185628.01905012358, 187500.0, -63779.78638169604, 187500.0, 187500.0, 187500.0, 187500.0, 0.068, 0.028, 0.978, 192.0, 0.0, 0.0, 0.0, 0.0, 0.0, 0.0, 0.0, 0.0, 0.0, 1.711045929024754E9, 0.0, 2024-03-21 14:32:09.024
162.0, 187500.0, -185634.45635252673, 187500.0, -63781.9545009082, 187500.0, 187500.0, 187500.0, 187500.0, 0.068, 0.028, 0.978, 192.0, 0.0, 0.0, 0.0, 0.0, 0.0, 0.0, 0.0, 0.0, 0.0, 1.711045929028758E9, 0.0, 2024-03-21 14:32:09.028
163.0, 187500.0, -185615.92675637326, 187500.0, -63757.54639596301, 187500.0, 187500.0, 187500.0, 187500.0, 0.068, 0.028, 0.978, 192.0, 0.0, 0.0, 0.0, 0.0, 0.0, 0.0, 0.0, 0.0, 0.0, 1.711045929033756E9, 0.0, 2024-03-21 14:32:09.033
164.0, 187500.0, -185607.14252080233, 187500.0, -63763.961346621676, 187500.0, 187500.0, 187500.0, 187500.0, 0.068, 0.028, 0.978, 192.0, 0.0, 0.0, 0.0, 0.0, 0.0, 0.0, 0.0, 0.0, 0.0, 1.711045929036755E9, 0.0, 2024-03-21 14:32:09.036
165.0, 187500.0, -185636.11038161643, 187500.0, -63795.276140603564, 187500.0, 187500.0, 187500.0, 187500.0, 0.068, 0.028, 0.978, 192.0, 0.0, 0.0, 0.0, 0.0, 0.0, 0.0, 0.0, 0.0, 0.0, 1.71104592904077E9, 0.0, 2024-03-21 14:32:09.040
166.0, 187500.0, -185645.78868696556, 187500.0, -63782.3568323084, 187500.0, 187500.0, 187500.0, 187500.0, 0.068, 0.028, 0.978, 192.0, 0.0, 0.0, 0.0, 0.0, 0.0, 0.0, 0.0, 0.0, 0.0, 1.711045929044768E9, 0.0, 2024-03-21 14:32:09.044
167.0, 187500.0, -185634.99279439365, 187500.0, -63748.42688422524, 187500.0, 187500.0, 187500.0, 187500.0, 0.068, 0.026000000000000002, 0.976, 192.0, 2.0, 32.0, 0.0, 208.0, 30.0, 128.0, 0.0, 0.0, 0.0, 1.711045929048805E9, 0.0, 2024-03-21 14:32:09.048
168.0, 187500.0, -185631.88590191436, 187500.0, -63740.84964285489, 187500.0, 187500.0, 187500.0, 187500.0, 0.068, 0.026000000000000002, 0.976, 192.0, 0.0, 0.0, 0.0, 0.0, 0.0, 0.0, 0.0, 0.0, 0.0, 1.711045929052772E9, 0.0, 2024-03-21 14:32:09.052
169.0, 187500.0, -185620.03947735304, 187500.0, -63773.594948481914, 187500.0, 187500.0, 187500.0, 187500.0, 0.068, 0.026000000000000002, 0.976, 192.0, 0.0, 0.0, 0.0, 0.0, 0.0, 0.0, 0.0, 0.0, 0.0, 1.711045929056802E9, 0.0, 2024-03-21 14:32:09.056
170.0, 187500.0, -185639.08316362897, 187500.0, -63776.56773049447, 187500.0, 187500.0, 187500.0, 187500.0, 0.068, 0.026000000000000002, 0.976, 192.0, 0.0, 0.0, 0.0, 0.0, 0.0, 0.0, 0.0, 0.0, 0.0, 1.711045929061865E9, 0.0, 2024-03-21 14:32:09.061
171.0, 187500.0, -185617.98311686315, 187500.0, -63748.583346436426, 187500.0, 187500.0, 187500.0, 187500.0, 0.068, 0.026000000000000002, 0.976, 192.0, 0.0, 0.0, 0.0, 0.0, 0.0, 0.0, 0.0, 0.0, 0.0, 1.711045929064794E9, 0.0, 2024-03-21 14:32:09.064
172.0, 187500.0, -185597.28540149753, 187500.0, -63733.92060207375, 187500.0, 187500.0, 187500.0, 187500.0, 0.068, 0.026000000000000002, 0.976, 192.0, 0.0, 0.0, 0.0, 0.0, 0.0, 0.0, 0.0, 0.0, 0.0, 1.711045929068796E9, 0.0, 2024-03-21 14:32:09.068
173.0, 187500.0, -185623.34753553243, 187500.0, -63776.16539909428, 187500.0, 187500.0, 187500.0, 187500.0, 0.068, 0.026000000000000002, 0.976, 192.0, 0.0, 0.0, 0.0, 0.0, 0.0, 0.0, 0.0, 0.0, 0.0, 1.711045929072797E9, 0.0, 2024-03-21 14:32:09.072
174.0, 187500.0, -185627.12498034537, 187500.0, -63799.03123367205, 187500.0, 187500.0, 187500.0, 187500.0, 0.068, 0.026000000000000002, 0.976, 192.0, 0.0, 0.0, 0.0, 0.0, 0.0, 0.0, 0.0, 0.0, 0.0, 1.711045929076793E9, 0.0, 2024-03-21 14:32:09.076
175.0, 187500.0, -185637.22796883917, 187500.0, -63777.23828282813, 187500.0, 187500.0, 187500.0, 187500.0, 0.068, 0.026000000000000002, 0.976, 192.0, 0.0, 0.0, 0.0, 0.0, 0.0, 0.0, 0.0, 0.0, 0.0, 1.71104592908089E9, 0.0, 2024-03-21 14:32:09.080
176.0, 187500.0, -185640.11134387393, 187500.0, -63769.281061802045, 187500.0, 187500.0, 187500.0, 187500.0, 0.068, 0.026000000000000002, 0.976, 192.0, 0.0, 0.0, 0.0, 0.0, 0.0, 0.0, 0.0, 0.0, 0.0, 1.711045929084837E9, 0.0, 2024-03-21 14:32:09.084
177.0, 187500.0, -185624.24160531064, 187500.0, -63804.082727918954, 187500.0, 187500.0, 187500.0, 187500.0, 0.066, 0.024, 0.976, 192.0, 2.0, 16.0, 0.0, 192.0, 30.0, 128.0, 0.0, 0.0, 0.0, 1.711045929089877E9, 0.0, 2024-03-21 14:32:09.089
178.0, 187500.0, -185624.19690182174, 187500.0, -63831.977704999175, 187500.0, 187500.0, 187500.0, 187500.0, 0.066, 0.024, 0.976, 192.0, 0.0, 0.0, 0.0, 0.0, 0.0, 0.0, 0.0, 0.0, 0.0, 1.711045929092865E9, 0.0, 2024-03-21 14:32:09.092
179.0, 187500.0, -185643.73232647567, 187500.0, -63821.226515916176, 187500.0, 187500.0, 187500.0, 187500.0, 0.066, 0.024, 0.976, 192.0, 0.0, 0.0, 0.0, 0.0, 0.0, 0.0, 0.0, 0.0, 0.0, 1.711045929096837E9, 0.0, 2024-03-21 14:32:09.096
180.0, 187500.0, -185641.09482062995, 187500.0, -63801.80284998452, 187500.0, 187500.0, 187500.0, 187500.0, 0.066, 0.024, 0.976, 192.0, 0.0, 0.0, 0.0, 0.0, 0.0, 0.0, 0.0, 0.0, 0.0, 1.71104592910085E9, 0.0, 2024-03-21 14:32:09.100
181.0, 187500.0, -185626.20855882272, 187500.0, -63820.82418451598, 187500.0, 187500.0, 187500.0, 187500.0, 0.066, 0.024, 0.976, 192.0, 0.0, 0.0, 0.0, 0.0, 0.0, 0.0, 0.0, 0.0, 0.0, 1.71104592910484E9, 0.0, 2024-03-21 14:32:09.104
182.0, 187500.0, -185630.09776235794, 187500.0, -63849.70263835224, 187500.0, 187500.0, 187500.0, 187500.0, 0.066, 0.024, 0.976, 192.0, 0.0, 0.0, 0.0, 0.0, 0.0, 0.0, 0.0, 0.0, 0.0, 1.711045929108843E9, 0.0, 2024-03-21 14:32:09.108
183.0, 187500.0, -185640.75954446313, 187500.0, -63841.09721673694, 187500.0, 187500.0, 187500.0, 187500.0, 0.066, 0.024, 0.976, 192.0, 0.0, 0.0, 0.0, 0.0, 0.0, 0.0, 0.0, 0.0, 0.0, 1.711045929112838E9, 0.0, 2024-03-21 14:32:09.112
184.0, 187500.0, -185644.80521020954, 187500.0, -63807.88252447636, 187500.0, 187500.0, 187500.0, 187500.0, 0.066, 0.024, 0.976, 192.0, 0.0, 0.0, 0.0, 0.0, 0.0, 0.0, 0.0, 0.0, 0.0, 1.711045929116856E9, 0.0, 2024-03-21 14:32:09.116
185.0, 187500.0, -185626.7673524341, 187500.0, -63812.15170766732, 187500.0, 187500.0, 187500.0, 187500.0, 0.066, 0.024, 0.976, 192.0, 0.0, 0.0, 0.0, 0.0, 0.0, 0.0, 0.0, 0.0, 0.0, 1.711045929119859E9, 0.0, 2024-03-21 14:32:09.119
186.0, 187500.0, -185629.47191351317, 187500.0, -63835.10694922292, 187500.0, 187500.0, 187500.0, 187500.0, 0.066, 0.024, 0.976, 192.0, 0.0, 0.0, 0.0, 0.0, 0.0, 0.0, 0.0, 0.0, 0.0, 1.711045929124882E9, 0.0, 2024-03-21 14:32:09.124
187.0, 187500.0, -185648.94028293376, 187500.0, -63821.9641234832, 187500.0, 187500.0, 187500.0, 187500.0, 0.07, 0.022, 0.978, 192.0, 2.0, 48.0, 0.0, 176.0, 30.0, 144.0, 0.0, 0.0, 0.0, 1.711045929128881E9, 0.0, 2024-03-21 14:32:09.128
188.0, 187500.0, -185638.92670141777, 187500.0, -63786.894236432825, 187500.0, 187500.0, 187500.0, 187500.0, 0.07, 0.022, 0.978, 192.0, 0.0, 0.0, 0.0, 0.0, 0.0, 0.0, 0.0, 0.0, 0.0, 1.711045929132907E9, 0.0, 2024-03-21 14:32:09.132
189.0, 187500.0, -185606.4719684687, 187500.0, -63797.444259815726, 187500.0, 187500.0, 187500.0, 187500.0, 0.07, 0.022, 0.978, 192.0, 0.0, 0.0, 0.0, 0.0, 0.0, 0.0, 0.0, 0.0, 0.0, 1.711045929136885E9, 0.0, 2024-03-21 14:32:09.136
190.0, 187500.0, -185611.0093725931, 187500.0, -63827.999094486135, 187500.0, 187500.0, 187500.0, 187500.0, 0.07, 0.022, 0.978, 192.0, 0.0, 0.0, 0.0, 0.0, 0.0, 0.0, 0.0, 0.0, 0.0, 1.711045929140899E9, 0.0, 2024-03-21 14:32:09.140
191.0, 187500.0, -185654.68468125878, 187500.0, -63829.13903345336, 187500.0, 187500.0, 187500.0, 187500.0, 0.07, 0.022, 0.978, 192.0, 0.0, 0.0, 0.0, 0.0, 0.0, 0.0, 0.0, 0.0, 0.0, 1.711045929144922E9, 0.0, 2024-03-21 14:32:09.144
192.0, 187500.0, -185629.09193385745, 187500.0, -63801.93696045125, 187500.0, 187500.0, 187500.0, 187500.0, 0.07, 0.022, 0.978, 192.0, 0.0, 0.0, 0.0, 0.0, 0.0, 0.0, 0.0, 0.0, 0.0, 1.711045929147907E9, 0.0, 2024-03-21 14:32:09.147
193.0, 187500.0, -185624.4651227552, 187500.0, -63796.30432084851, 187500.0, 187500.0, 187500.0, 187500.0, 0.07, 0.022, 0.978, 192.0, 0.0, 0.0, 0.0, 0.0, 0.0, 0.0, 0.0, 0.0, 0.0, 1.711045929151918E9, 0.0, 2024-03-21 14:32:09.151
194.0, 187500.0, -185646.4145358103, 187500.0, -63828.423777630785, 187500.0, 187500.0, 187500.0, 187500.0, 0.07, 0.022, 0.978, 192.0, 0.0, 0.0, 0.0, 0.0, 0.0, 0.0, 0.0, 0.0, 0.0, 1.711045929156951E9, 0.0, 2024-03-21 14:32:09.156
195.0, 187500.0, -185648.40384106684, 187500.0, -63871.74145838517, 187500.0, 187500.0, 187500.0, 187500.0, 0.07, 0.022, 0.978, 192.0, 0.0, 0.0, 0.0, 0.0, 0.0, 0.0, 0.0, 0.0, 0.0, 1.711045929160887E9, 0.0, 2024-03-21 14:32:09.160
196.0, 187500.0, -185636.95974790573, 187500.0, -63852.58601338697, 187500.0, 187500.0, 187500.0, 187500.0, 0.066, 0.022, 0.978, 192.0, 2.0, 16.0, 0.0, 176.0, 30.0, 144.0, 0.0, 0.0, 0.0, 1.711045929164913E9, 0.0, 2024-03-21 14:32:09.164
197.0, 187500.0, -185631.43886702525, 187500.0, -63853.27891746508, 187500.0, 187500.0, 187500.0, 187500.0, 0.066, 0.022, 0.978, 192.0, 0.0, 0.0, 0.0, 0.0, 0.0, 0.0, 0.0, 0.0, 0.0, 1.711045929168902E9, 0.0, 2024-03-21 14:32:09.168
198.0, 187500.0, -185615.63618369534, 187500.0, -63895.00962436314, 187500.0, 187500.0, 187500.0, 187500.0, 0.066, 0.022, 0.978, 192.0, 0.0, 0.0, 0.0, 0.0, 0.0, 0.0, 0.0, 0.0, 0.0, 1.711045929172947E9, 0.0, 2024-03-21 14:32:09.172
199.0, 187500.0, -185627.63907046785, 187500.0, -63921.42938630932, 187500.0, 187500.0, 187500.0, 187500.0, 0.066, 0.022, 0.978, 192.0, 0.0, 0.0, 0.0, 0.0, 0.0, 0.0, 0.0, 0.0, 0.0, 1.711045929175914E9, 0.0, 2024-03-21 14:32:09.175
200.0, 187500.0, -185647.33095733298, 187500.0, -63905.76081344615, 187500.0, 187500.0, 187500.0, 187500.0, 0.066, 0.022, 0.978, 192.0, 0.0, 0.0, 0.0, 0.0, 0.0, 0.0, 0.0, 0.0, 0.0, 1.711045929179949E9, 0.0, 2024-03-21 14:32:09.179
201.0, 187500.0, -185639.68666072926, 187500.0, -63883.31966201302, 187500.0, 187500.0, 187500.0, 187500.0, 0.066, 0.022, 0.978, 192.0, 0.0, 0.0, 0.0, 0.0, 0.0, 0.0, 0.0, 0.0, 0.0, 1.711045929184963E9, 0.0, 2024-03-21 14:32:09.184
202.0, 187500.0, -185648.13562013337, 187500.0, -63890.919255127825, 187500.0, 187500.0, 187500.0, 187500.0, 0.066, 0.022, 0.978, 192.0, 0.0, 0.0, 0.0, 0.0, 0.0, 0.0, 0.0, 0.0, 0.0, 1.711045929188949E9, 0.0, 2024-03-21 14:32:09.188
203.0, 187500.0, -185688.99460899766, 187500.0, -63899.77054593212, 187500.0, 187500.0, 187500.0, 187500.0, 0.066, 0.022, 0.978, 192.0, 0.0, 0.0, 0.0, 0.0, 0.0, 0.0, 0.0, 0.0, 0.0, 1.71104592919294E9, 0.0, 2024-03-21 14:32:09.192
204.0, 187500.0, -185642.43592529726, 187500.0, -63897.133040086395, 187500.0, 187500.0, 187500.0, 187500.0, 0.066, 0.022, 0.978, 192.0, 0.0, 0.0, 0.0, 0.0, 0.0, 0.0, 0.0, 0.0, 0.0, 1.711045929196943E9, 0.0, 2024-03-21 14:32:09.196
205.0, 187500.0, -185621.067657598, 187500.0, -63857.704562867235, 187500.0, 187500.0, 187500.0, 187500.0, 0.066, 0.022, 0.978, 192.0, 0.0, 0.0, 0.0, 0.0, 0.0, 0.0, 0.0, 0.0, 0.0, 1.711045929200941E9, 0.0, 2024-03-21 14:32:09.200
206.0, 187500.0, -185613.33395401645, 187500.0, -63855.0223535326, 187500.0, 187500.0, 187500.0, 187500.0, 0.07200000000000001, 0.02, 0.98, 192.0, 2.0, 64.0, 0.0, 160.0, 30.0, 160.0, 0.0, 0.0, 0.0, 1.711045929203941E9, 0.0, 2024-03-21 14:32:09.203
207.0, 187500.0, -185613.6692301833, 187500.0, -63866.68996413827, 187500.0, 187500.0, 187500.0, 187500.0, 0.07200000000000001, 0.02, 0.98, 192.0, 0.0, 0.0, 0.0, 0.0, 0.0, 0.0, 0.0, 0.0, 0.0, 1.71104592920794E9, 0.0, 2024-03-21 14:32:09.207
208.0, 187500.0, -185644.20171310924, 187500.0, -63842.43832140426, 187500.0, 187500.0, 187500.0, 187500.0, 0.07200000000000001, 0.02, 0.98, 192.0, 0.0, 0.0, 0.0, 0.0, 0.0, 0.0, 0.0, 0.0, 0.0, 1.711045929212939E9, 0.0, 2024-03-21 14:32:09.212
209.0, 187500.0, -185640.78189620757, 187500.0, -63810.47532683317, 187500.0, 187500.0, 187500.0, 187500.0, 0.07200000000000001, 0.02, 0.98, 192.0, 0.0, 0.0, 0.0, 0.0, 0.0, 0.0, 0.0, 0.0, 0.0, 1.711045929216939E9, 0.0, 2024-03-21 14:32:09.216
210.0, 187500.0, -185629.47191351317, 187500.0, -63813.045777445535, 187500.0, 187500.0, 187500.0, 187500.0, 0.07200000000000001, 0.02, 0.98, 192.0, 0.0, 0.0, 0.0, 0.0, 0.0, 0.0, 0.0, 0.0, 0.0, 1.711045929220971E9, 0.0, 2024-03-21 14:32:09.220
211.0, 187500.0, -185617.42432325176, 187500.0, -63840.29255393655, 187500.0, 187500.0, 187500.0, 187500.0, 0.07200000000000001, 0.02, 0.98, 192.0, 0.0, 0.0, 0.0, 0.0, 0.0, 0.0, 0.0, 0.0, 0.0, 1.711045929224982E9, 0.0, 2024-03-21 14:32:09.224
212.0, 187500.0, -185611.2552417821, 187500.0, -63837.565641113004, 187500.0, 187500.0, 187500.0, 187500.0, 0.07200000000000001, 0.02, 0.98, 192.0, 0.0, 0.0, 0.0, 0.0, 0.0, 0.0, 0.0, 0.0, 0.0, 1.711045929228984E9, 0.0, 2024-03-21 14:32:09.228
213.0, 187500.0, -185619.30186978602, 187500.0, -63804.663873274796, 187500.0, 187500.0, 187500.0, 187500.0, 0.07200000000000001, 0.02, 0.98, 192.0, 0.0, 0.0, 0.0, 0.0, 0.0, 0.0, 0.0, 0.0, 0.0, 1.711045929231984E9, 0.0, 2024-03-21 14:32:09.231
214.0, 187500.0, -185616.39614300683, 187500.0, -63811.41410010029, 187500.0, 187500.0, 187500.0, 187500.0, 0.07200000000000001, 0.02, 0.98, 192.0, 0.0, 0.0, 0.0, 0.0, 0.0, 0.0, 0.0, 0.0, 0.0, 1.711045929236005E9, 0.0, 2024-03-21 14:32:09.236
215.0, 187500.0, -185626.58853847845, 187500.0, -63849.50147265214, 187500.0, 187500.0, 187500.0, 187500.0, 0.07200000000000001, 0.02, 0.98, 192.0, 0.0, 0.0, 0.0, 0.0, 0.0, 0.0, 0.0, 0.0, 0.0, 1.711045929240997E9, 0.0, 2024-03-21 14:32:09.240
216.0, 187500.0, -185634.25518682663, 187500.0, -63867.74049612767, 187500.0, 187500.0, 187500.0, 187500.0, 0.07, 0.018000000000000002, 0.978, 192.0, 2.0, 48.0, 0.0, 144.0, 30.0, 144.0, 0.0, 0.0, 0.0, 1.711045929245001E9, 0.0, 2024-03-21 14:32:09.245
217.0, 187500.0, -185637.09385837245, 187500.0, -63845.25464120563, 187500.0, 187500.0, 187500.0, 187500.0, 0.07, 0.018000000000000002, 0.978, 192.0, 0.0, 0.0, 0.0, 0.0, 0.0, 0.0, 0.0, 0.0, 0.0, 1.711045929248991E9, 0.0, 2024-03-21 14:32:09.248
218.0, 187500.0, -185619.07835234146, 187500.0, -63854.44120817676, 187500.0, 187500.0, 187500.0, 187500.0, 0.07, 0.018000000000000002, 0.978, 192.0, 0.0, 0.0, 0.0, 0.0, 0.0, 0.0, 0.0, 0.0, 0.0, 1.711045929252061E9, 0.0, 2024-03-21 14:32:09.252
219.0, 187500.0, -185628.42138152377, 187500.0, -63907.772470447126, 187500.0, 187500.0, 187500.0, 187500.0, 0.07, 0.018000000000000002, 0.978, 192.0, 0.0, 0.0, 0.0, 0.0, 0.0, 0.0, 0.0, 0.0, 0.0, 1.711045929255994E9, 0.0, 2024-03-21 14:32:09.255
220.0, 187500.0, -185635.64099498285, 187500.0, -63950.486654101216, 187500.0, 187500.0, 187500.0, 187500.0, 0.07, 0.018000000000000002, 0.978, 192.0, 0.0, 0.0, 0.0, 0.0, 0.0, 0.0, 0.0, 0.0, 0.0, 1.71104592926E9, 0.0, 2024-03-21 14:32:09.260
221.0, 187500.0, -185643.75467822014, 187500.0, -63931.51002305866, 187500.0, 187500.0, 187500.0, 187500.0, 0.07, 0.018000000000000002, 0.978, 192.0, 0.0, 0.0, 0.0, 0.0, 0.0, 0.0, 0.0, 0.0, 0.0, 1.711045929263992E9, 0.0, 2024-03-21 14:32:09.263
222.0, 187500.0, -185634.63516648236, 187500.0, -63928.15726139036, 187500.0, 187500.0, 187500.0, 187500.0, 0.07, 0.018000000000000002, 0.978, 192.0, 0.0, 0.0, 0.0, 0.0, 0.0, 0.0, 0.0, 0.0, 0.0, 1.711045929268988E9, 0.0, 2024-03-21 14:32:09.268
223.0, 187500.0, -185636.08802987196, 187500.0, -63954.21939542525, 187500.0, 187500.0, 187500.0, 187500.0, 0.07, 0.018000000000000002, 0.978, 192.0, 0.0, 0.0, 0.0, 0.0, 0.0, 0.0, 0.0, 0.0, 0.0, 1.711045929273022E9, 0.0, 2024-03-21 14:32:09.273
224.0, 187500.0, -185626.34266928944, 187500.0, -63993.08907903303, 187500.0, 187500.0, 187500.0, 187500.0, 0.07, 0.018000000000000002, 0.978, 192.0, 0.0, 0.0, 0.0, 0.0, 0.0, 0.0, 0.0, 0.0, 0.0, 1.711045929277031E9, 0.0, 2024-03-21 14:32:09.277
225.0, 187500.0, -185625.24743381114, 187500.0, -63972.45841890078, 187500.0, 187500.0, 187500.0, 187500.0, 0.07, 0.018000000000000002, 0.978, 192.0, 0.0, 0.0, 0.0, 0.0, 0.0, 0.0, 0.0, 0.0, 0.0, 1.711045929280055E9, 0.0, 2024-03-21 14:32:09.280
226.0, 187500.0, -185613.37865750535, 187500.0, -63949.03379071162, 187500.0, 187500.0, 187500.0, 187500.0, 0.068, 0.018000000000000002, 0.978, 192.0, 2.0, 32.0, 0.0, 144.0, 30.0, 144.0, 0.0, 0.0, 0.0, 1.711045929284037E9, 0.0, 2024-03-21 14:32:09.284
227.0, 187500.0, -185614.4738929837, 187500.0, -63976.25821545818, 187500.0, 187500.0, 187500.0, 187500.0, 0.068, 0.018000000000000002, 0.978, 192.0, 0.0, 0.0, 0.0, 0.0, 0.0, 0.0, 0.0, 0.0, 0.0, 1.711045929288045E9, 0.0, 2024-03-21 14:32:09.288
228.0, 187500.0, -185629.71778270218, 187500.0, -63999.213457013786, 187500.0, 187500.0, 187500.0, 187500.0, 0.068, 0.018000000000000002, 0.978, 192.0, 0.0, 0.0, 0.0, 0.0, 0.0, 0.0, 0.0, 0.0, 0.0, 1.711045929292049E9, 0.0, 2024-03-21 14:32:09.292
229.0, 187500.0, -185642.54768401955, 187500.0, -63982.18142773884, 187500.0, 187500.0, 187500.0, 187500.0, 0.068, 0.018000000000000002, 0.978, 192.0, 0.0, 0.0, 0.0, 0.0, 0.0, 0.0, 0.0, 0.0, 0.0, 1.711045929296037E9, 0.0, 2024-03-21 14:32:09.296
230.0, 187500.0, -185634.90338741583, 187500.0, -63955.47109311475, 187500.0, 187500.0, 187500.0, 187500.0, 0.068, 0.018000000000000002, 0.978, 192.0, 0.0, 0.0, 0.0, 0.0, 0.0, 0.0, 0.0, 0.0, 0.0, 1.711045929301034E9, 0.0, 2024-03-21 14:32:09.301
231.0, 187500.0, -185627.59436697894, 187500.0, -63961.394305395406, 187500.0, 187500.0, 187500.0, 187500.0, 0.068, 0.018000000000000002, 0.978, 192.0, 0.0, 0.0, 0.0, 0.0, 0.0, 0.0, 0.0, 0.0, 0.0, 1.711045929305032E9, 0.0, 2024-03-21 14:32:09.305
232.0, 187500.0, -185662.23957088467, 187500.0, -63992.28441623264, 187500.0, 187500.0, 187500.0, 187500.0, 0.068, 0.018000000000000002, 0.978, 192.0, 0.0, 0.0, 0.0, 0.0, 0.0, 0.0, 0.0, 0.0, 0.0, 1.711045929308066E9, 0.0, 2024-03-21 14:32:09.308
233.0, 187500.0, -185650.571960279, 187500.0, -63998.20762851329, 187500.0, 187500.0, 187500.0, 187500.0, 0.068, 0.018000000000000002, 0.978, 192.0, 0.0, 0.0, 0.0, 0.0, 0.0, 0.0, 0.0, 0.0, 0.0, 1.711045929312083E9, 0.0, 2024-03-21 14:32:09.312
234.0, 187500.0, -185639.4631432847, 187500.0, -63960.097904217, 187500.0, 187500.0, 187500.0, 187500.0, 0.068, 0.018000000000000002, 0.978, 192.0, 0.0, 0.0, 0.0, 0.0, 0.0, 0.0, 0.0, 0.0, 0.0, 1.711045929316078E9, 0.0, 2024-03-21 14:32:09.316
235.0, 187500.0, -185624.04043961054, 187500.0, -63957.102770459984, 187500.0, 187500.0, 187500.0, 187500.0, 0.068, 0.018000000000000002, 0.978, 192.0, 0.0, 0.0, 0.0, 0.0, 0.0, 0.0, 0.0, 0.0, 0.0, 1.711045929320071E9, 0.0, 2024-03-21 14:32:09.320
236.0, 187500.0, -185619.70420118622, 187500.0, -63976.548788136104, 187500.0, 187500.0, 187500.0, 187500.0, 0.068, 0.024, 0.982, 192.0, 2.0, 32.0, 0.0, 192.0, 30.0, 176.0, 0.0, 0.0, 0.0, 1.711045929324074E9, 0.0, 2024-03-21 14:32:09.324
237.0, 187500.0, -185630.67890771377, 187500.0, -63966.199930453295, 187500.0, 187500.0, 187500.0, 187500.0, 0.068, 0.024, 0.982, 192.0, 0.0, 0.0, 0.0, 0.0, 0.0, 0.0, 0.0, 0.0, 0.0, 1.711045929329086E9, 0.0, 2024-03-21 14:32:09.329
238.0, 187500.0, -185620.37475351986, 187500.0, -63925.11742414444, 187500.0, 187500.0, 187500.0, 187500.0, 0.068, 0.024, 0.982, 192.0, 0.0, 0.0, 0.0, 0.0, 0.0, 0.0, 0.0, 0.0, 0.0, 1.711045929333128E9, 0.0, 2024-03-21 14:32:09.333
239.0, 187500.0, -185591.51865142808, 187500.0, -63918.23308685221, 187500.0, 187500.0, 187500.0, 187500.0, 0.068, 0.024, 0.982, 192.0, 0.0, 0.0, 0.0, 0.0, 0.0, 0.0, 0.0, 0.0, 0.0, 1.711045929336084E9, 0.0, 2024-03-21 14:32:09.336
240.0, 187500.0, -185619.5700907195, 187500.0, -63938.863746984454, 187500.0, 187500.0, 187500.0, 187500.0, 0.068, 0.024, 0.982, 192.0, 0.0, 0.0, 0.0, 0.0, 0.0, 0.0, 0.0, 0.0, 0.0, 1.711045929341077E9, 0.0, 2024-03-21 14:32:09.341
241.0, 187500.0, -185632.71291645922, 187500.0, -63925.720921244734, 187500.0, 187500.0, 187500.0, 187500.0, 0.068, 0.024, 0.982, 192.0, 0.0, 0.0, 0.0, 0.0, 0.0, 0.0, 0.0, 0.0, 0.0, 1.711045929345082E9, 0.0, 2024-03-21 14:32:09.345
242.0, 187500.0, -185649.65553875634, 187500.0, -63878.02229857711, 187500.0, 187500.0, 187500.0, 187500.0, 0.068, 0.024, 0.982, 192.0, 0.0, 0.0, 0.0, 0.0, 0.0, 0.0, 0.0, 0.0, 0.0, 1.711045929348071E9, 0.0, 2024-03-21 14:32:09.348
243.0, 187500.0, -185636.9150444168, 187500.0, -63848.74151334066, 187500.0, 187500.0, 187500.0, 187500.0, 0.068, 0.024, 0.982, 192.0, 0.0, 0.0, 0.0, 0.0, 0.0, 0.0, 0.0, 0.0, 0.0, 1.711045929352116E9, 0.0, 2024-03-21 14:32:09.352
244.0, 187500.0, -185624.59923322193, 187500.0, -63864.16421701482, 187500.0, 187500.0, 187500.0, 187500.0, 0.068, 0.024, 0.982, 192.0, 0.0, 0.0, 0.0, 0.0, 0.0, 0.0, 0.0, 0.0, 0.0, 1.711045929356121E9, 0.0, 2024-03-21 14:32:09.356
245.0, 187500.0, -185633.07054437048, 187500.0, -63872.523769441104, 187500.0, 187500.0, 187500.0, 187500.0, 0.068, 0.024, 0.982, 192.0, 0.0, 0.0, 0.0, 0.0, 0.0, 0.0, 0.0, 0.0, 0.0, 1.711045929360117E9, 0.0, 2024-03-21 14:32:09.360
246.0, 187500.0, -185649.34261433396, 187500.0, -63838.50441438013, 187500.0, 187500.0, 187500.0, 187500.0, 0.064, 0.022, 0.978, 192.0, 2.0, 0.0, 0.0, 176.0, 30.0, 144.0, 0.0, 0.0, 0.0, 1.711045929364127E9, 0.0, 2024-03-21 14:32:09.364
247.0, 187500.0, -185638.99375665115, 187500.0, -63815.839745502446, 187500.0, 187500.0, 187500.0, 187500.0, 0.064, 0.022, 0.978, 192.0, 0.0, 0.0, 0.0, 0.0, 0.0, 0.0, 0.0, 0.0, 0.0, 1.711045929369117E9, 0.0, 2024-03-21 14:32:09.369
248.0, 187500.0, -185618.65366919682, 187500.0, -63833.72114106669, 187500.0, 187500.0, 187500.0, 187500.0, 0.064, 0.022, 0.978, 192.0, 0.0, 0.0, 0.0, 0.0, 0.0, 0.0, 0.0, 0.0, 0.0, 1.711045929373121E9, 0.0, 2024-03-21 14:32:09.373
