%OpenBCI Raw EXG Data
%Number of channels = 8
%Sample Rate = 250 Hz
%Board = OpenBCI_GUI$BoardCytonSerial
Sample Index, EXG Channel 0, EXG Channel 1, EXG Channel 2, EXG Channel 3, EXG Channel 4, EXG Channel 5, EXG Channel 6, EXG Channel 7, Accel Channel 0, Accel Channel 1, Accel Channel 2, Other, Other, Other, Other, Other, Other, Other, Analog Channel 0, Analog Channel 1, Analog Channel 2, Timestamp, Other, Timestamp (Formatted)
218.0, 187500.0, 187500.0, 22973.346468609154, -181685.7301218188, 187500.0, -181293.9934484951, -182052.3210826303, -181955.18040122752, 0.0, 0.0, 0.0, 192.0, 0.0, 0.0, 0.0, 0.0, 0.0, 0.0, 0.0, 0.0, 0.0, 1.708991253348294E9, 0.0, 2024-02-26 18:47:33.348
219.0, 187500.0, 187500.0, 22741.73769256326, -181586.89070783745, 187500.0, -181283.6892943012, -181959.78486058532, -181860.96779834843, 0.0, 0.0, 0.0, 192.0, 0.0, 0.0, 0.0, 0.0, 0.0, 0.0, 0.0, 0.0, 0.0, 1.708991253348325E9, 0.0, 2024-02-26 18:47:33.348
220.0, 187500.0, 187500.0, 22739.726035562282, -181629.78370544716, 187500.0, -181294.57459385094, -182011.462093766, -181911.50509256186, 0.0, 0.0, 0.0, 192.0, 0.0, 0.0, 0.0, 0.0, 0.0, 0.0, 0.0, 0.0, 0.0, 1.708991253348344E9, 0.0, 2024-02-26 18:47:33.348
221.0, 187500.0, 187500.0, 22879.08916224112, -181692.0333137552, 187500.0, -181342.1614577963, -182082.9653242785, -181981.68957015153, 0.0, 0.0, 0.0, 192.0, 0.0, 0.0, 0.0, 0.0, 0.0, 0.0, 0.0, 0.0, 0.0, 1.708991253348361E9, 0.0, 2024-02-26 18:47:33.348
0.0, 0.0, 0.0, 0.0, 0.0, 0.0, 0.0, 0.0, 0.0, 0.0, 0.0, 0.0, 192.0, 0.0, 0.0, 0.0, 0.0, 0.0, 0.0, 0.0, 0.0, 0.0, 1.708991253429338E9, 0.0, 2024-02-26 18:47:33.429
1.0, 187500.0, 187500.0, 32129.87269519242, -183666.58641893702, 187500.0, -183169.6847879511, -185228.19104530706, -183890.9979332683, 0.062, 0.002, 0.982, 192.0, 1.0, 240.0, 0.0, 16.0, 30.0, 176.0, 0.0, 0.0, 0.0, 1.708991253447321E9, 0.0, 2024-02-26 18:47:33.447
2.0, 187500.0, 187500.0, 33095.870387061885, -183771.70667311034, 187500.0, -183256.2530942265, -185343.81661937435, -184006.0200102353, 0.062, 0.002, 0.982, 192.0, 0.0, 0.0, 0.0, 0.0, 0.0, 0.0, 0.0, 0.0, 0.0, 1.708991253450323E9, 0.0, 2024-02-26 18:47:33.450
3.0, 187500.0, 187500.0, 32643.180506608547, -183726.44439058835, 187500.0, -183223.10545719927, -185305.79630205588, -183967.35149232764, 0.062, 0.002, 0.982, 192.0, 0.0, 0.0, 0.0, 0.0, 0.0, 0.0, 0.0, 0.0, 0.0, 1.708991253453328E9, 0.0, 2024-02-26 18:47:33.453
4.0, 187500.0, 187500.0, 31553.421205690054, -183582.52150804063, 187500.0, -183176.5244217544, -185166.81315503278, -183827.00488889276, 0.062, 0.002, 0.982, 192.0, 0.0, 0.0, 0.0, 0.0, 0.0, 0.0, 0.0, 0.0, 0.0, 1.708991253457316E9, 0.0, 2024-02-26 18:47:33.457
5.0, 187500.0, 187500.0, 31563.323028483755, -183563.83544967597, 187500.0, -183155.84905813326, -185155.34671012723, -183814.5326154867, 0.062, 0.002, 0.982, 192.0, 0.0, 0.0, 0.0, 0.0, 0.0, 0.0, 0.0, 0.0, 0.0, 1.708991253461321E9, 0.0, 2024-02-26 18:47:33.461
6.0, 187500.0, 187500.0, 32722.86447559172, -183712.45219855933, 187500.0, -183277.68841715914, -185314.91581379366, -183973.45351856394, 0.062, 0.002, 0.982, 192.0, 0.0, 0.0, 0.0, 0.0, 0.0, 0.0, 0.0, 0.0, 0.0, 1.708991253465383E9, 0.0, 2024-02-26 18:47:33.465
7.0, 187500.0, 187500.0, 32996.11455155785, -183685.83127091304, 187500.0, -183267.5630769209, -185296.22975542903, -183954.0298526323, 0.062, 0.002, 0.982, 192.0, 0.0, 0.0, 0.0, 0.0, 0.0, 0.0, 0.0, 0.0, 0.0, 1.708991253469369E9, 0.0, 2024-02-26 18:47:33.469
8.0, 187500.0, 187500.0, 32144.356625599463, -183516.00271654164, 187500.0, -183168.6789594506, -185131.0503639043, -183787.15172852896, 0.07, 0.0, 0.984, 192.0, 2.0, 48.0, 0.0, 0.0, 30.0, 192.0, 0.0, 0.0, 0.0, 1.708991253473378E9, 0.0, 2024-02-26 18:47:33.473
9.0, 187500.0, 187500.0, 32041.87387727188, -183481.7598440361, 187500.0, -183148.56238944083, -185104.429436258, -183759.2343997043, 0.07, 0.0, 0.984, 192.0, 0.0, 0.0, 0.0, 0.0, 0.0, 0.0, 0.0, 0.0, 0.0, 1.708991253477392E9, 0.0, 2024-02-26 18:47:33.477
10.0, 187500.0, 187500.0, 32914.93301569617, -183594.85967097996, 187500.0, -183237.83525679534, -185228.39221100716, -183882.7948430532, 0.07, 0.0, 0.984, 192.0, 0.0, 0.0, 0.0, 0.0, 0.0, 0.0, 0.0, 0.0, 0.0, 1.708991253480368E9, 0.0, 2024-02-26 18:47:33.480
11.0, 187500.0, 187500.0, 33317.64439554744, -183638.95966279026, 187500.0, -183276.7049404031, -185281.47760408852, -183935.03086984527, 0.07, 0.0, 0.984, 192.0, 0.0, 0.0, 0.0, 0.0, 0.0, 0.0, 0.0, 0.0, 0.0, 1.708991253484369E9, 0.0, 2024-02-26 18:47:33.484
12.0, 187500.0, 187500.0, 32307.904339778943, -183460.9056664593, 187500.0, -183185.86745093676, -185107.1339973371, -183759.74848982674, 0.07, 0.0, 0.984, 192.0, 0.0, 0.0, 0.0, 0.0, 0.0, 0.0, 0.0, 0.0, 0.0, 1.70899125348937E9, 0.0, 2024-02-26 18:47:33.489
13.0, 187500.0, 187500.0, 32028.619292809883, -183391.8387760924, 187500.0, -183152.58570344278, -185043.74445006187, -183696.06836987357, 0.07, 0.0, 0.984, 192.0, 0.0, 0.0, 0.0, 0.0, 0.0, 0.0, 0.0, 0.0, 0.0, 1.708991253493363E9, 0.0, 2024-02-26 18:47:33.493
14.0, 187500.0, 187500.0, 32782.72244724303, -183483.27976265905, 187500.0, -183208.0403814364, -185145.06490767776, -183796.9864960893, 0.07, 0.0, 0.984, 192.0, 0.0, 0.0, 0.0, 0.0, 0.0, 0.0, 0.0, 0.0, 0.0, 1.70899125349738E9, 0.0, 2024-02-26 18:47:33.497
15.0, 187500.0, 187500.0, 33512.0598688197, -183552.50311523714, 187500.0, -183274.13448979074, -185224.52535921638, -183875.7540435498, 0.07, 0.0, 0.984, 192.0, 0.0, 0.0, 0.0, 0.0, 0.0, 0.0, 0.0, 0.0, 0.0, 1.708991253500383E9, 0.0, 2024-02-26 18:47:33.500
16.0, 187500.0, 187500.0, 32585.91533731405, -183371.8786682938, 187500.0, -183186.87327943722, -185048.79594430877, -183698.16943385237, 0.07, 0.0, 0.984, 192.0, 0.0, 0.0, 0.0, 0.0, 0.0, 0.0, 0.0, 0.0, 0.0, 1.70899125350436E9, 0.0, 2024-02-26 18:47:33.504
17.0, 187500.0, 187500.0, 32100.726020422702, -183261.4610506846, 187500.0, -183158.06188083434, -184944.52505642475, -183592.60214478997, 0.07, 0.0, 0.984, 192.0, 0.0, 0.0, 0.0, 0.0, 0.0, 0.0, 0.0, 0.0, 0.0, 1.708991253508374E9, 0.0, 2024-02-26 18:47:33.508
18.0, 187500.0, 187500.0, 32578.248688965883, -183330.70675500712, 187500.0, -183198.3844278317, -185023.33730737417, -183671.23558178372, 0.07, -0.002, 0.976, 192.0, 2.0, 48.0, 255.0, 240.0, 30.0, 128.0, 0.0, 0.0, 0.0, 1.708991253512369E9, 0.0, 2024-02-26 18:47:33.512
19.0, 187500.0, 187500.0, 33401.508140743754, -183464.5490008055, 187500.0, -183310.99251639756, -185168.4001288891, -183815.62785096501, 0.07, -0.002, 0.976, 192.0, 0.0, 0.0, 0.0, 0.0, 0.0, 0.0, 0.0, 0.0, 0.0, 1.708991253517367E9, 0.0, 2024-02-26 18:47:33.517
20.0, 187500.0, 187500.0, 32586.474130925435, -183327.68926950567, 187500.0, -183207.3474773583, -185035.38489763558, -183681.69619818882, 0.07, -0.002, 0.976, 192.0, 0.0, 0.0, 0.0, 0.0, 0.0, 0.0, 0.0, 0.0, 0.0, 1.708991253521402E9, 0.0, 2024-02-26 18:47:33.521
21.0, 187500.0, 187500.0, 32000.43374305174, -183175.5856484873, 187500.0, -183154.77617439942, -184892.84782324408, -183538.68973716378, 0.07, -0.002, 0.976, 192.0, 0.0, 0.0, 0.0, 0.0, 0.0, 0.0, 0.0, 0.0, 0.0, 1.708991253525417E9, 0.0, 2024-02-26 18:47:33.525
22.0, 187500.0, 187500.0, 32461.706693375912, -183064.966865178, 187500.0, -183176.3903112877, -184911.0868467196, -183556.41467051682, 0.07, -0.002, 0.976, 192.0, 0.0, 0.0, 0.0, 0.0, 0.0, 0.0, 0.0, 0.0, 0.0, 1.708991253528407E9, 0.0, 2024-02-26 18:47:33.528
23.0, 187500.0, 187500.0, 33538.881962166066, -183218.1433699302, 187500.0, -183281.0635305719, -185052.0816507437, -183696.18012859585, 0.07, -0.002, 0.976, 192.0, 0.0, 0.0, 0.0, 0.0, 0.0, 0.0, 0.0, 0.0, 0.0, 1.708991253532408E9, 0.0, 2024-02-26 18:47:33.532
24.0, 187500.0, 187500.0, 32931.093326937356, -183375.05261600646, 187500.0, -183206.81103549135, -184950.29180649424, -183593.20564189026, 0.07, -0.002, 0.976, 192.0, 0.0, 0.0, 0.0, 0.0, 0.0, 0.0, 0.0, 0.0, 0.0, 1.708991253538403E9, 0.0, 2024-02-26 18:47:33.538
25.0, 187500.0, 187500.0, 31984.072266110456, -183592.4903860677, 187500.0, -183143.86852310522, -184787.10172022603, -183429.63557596633, 0.07, -0.002, 0.976, 192.0, 0.0, 0.0, 0.0, 0.0, 0.0, 0.0, 0.0, 0.0, 0.0, 1.708991253541524E9, 0.0, 2024-02-26 18:47:33.541
26.0, 187500.0, 187500.0, 32081.056485302033, -183870.56843883617, 187500.0, -183138.50410443594, -184802.18914773336, -183443.2924918285, 0.07, -0.002, 0.976, 192.0, 0.0, 0.0, 0.0, 0.0, 0.0, 0.0, 0.0, 0.0, 0.0, 1.708991253545442E9, 0.0, 2024-02-26 18:47:33.545
27.0, 187500.0, 187500.0, 33114.824666359986, -184017.70997258544, 187500.0, -183247.06652725537, -184946.31319598117, -183587.86357496545, 0.07, -0.004, 0.978, 192.0, 2.0, 48.0, 255.0, 224.0, 30.0, 144.0, 0.0, 0.0, 0.0, 1.70899125354941E9, 0.0, 2024-02-26 18:47:33.549
28.0, 187500.0, 187500.0, 32879.907832134704, -183979.3767308446, 187500.0, -183214.00829720596, -184916.652431089, -183556.90640889484, 0.07, -0.004, 0.978, 192.0, 0.0, 0.0, 0.0, 0.0, 0.0, 0.0, 0.0, 0.0, 0.0, 1.708991253553407E9, 0.0, 2024-02-26 18:47:33.553
29.0, 187500.0, 187500.0, 31797.166978975176, -183833.397487807, 187500.0, -183165.21443906004, -184776.43993812083, -183414.9951833481, 0.07, -0.004, 0.978, 192.0, 0.0, 0.0, 0.0, 0.0, 0.0, 0.0, 0.0, 0.0, 0.0, 1.708991253556448E9, 0.0, 2024-02-26 18:47:33.556
30.0, 187500.0, 187500.0, 31583.52900547135, -183790.39273147497, 187500.0, -183146.41662197313, -184740.72185048126, -183378.8747643083, 0.07, -0.004, 0.978, 192.0, 0.0, 0.0, 0.0, 0.0, 0.0, 0.0, 0.0, 0.0, 0.0, 1.70899125356048E9, 0.0, 2024-02-26 18:47:33.560
31.0, 187500.0, 187500.0, 32449.681454858957, -183930.82874188767, 187500.0, -183254.3978994367, -184893.76424476676, -183531.64893766033, 0.07, -0.004, 0.978, 192.0, 0.0, 0.0, 0.0, 0.0, 0.0, 0.0, 0.0, 0.0, 0.0, 1.70899125356447E9, 0.0, 2024-02-26 18:47:33.564
32.0, 187500.0, 187500.0, 32609.563482947768, -183972.71591099692, 187500.0, -183288.97604810906, -184944.83798084714, -183581.80625221806, 0.07, -0.004, 0.978, 192.0, 0.0, 0.0, 0.0, 0.0, 0.0, 0.0, 0.0, 0.0, 0.0, 1.70899125356845E9, 0.0, 2024-02-26 18:47:33.568
33.0, 187500.0, 187500.0, 31667.728026834495, -183804.80960664866, 187500.0, -183179.2289828335, -184781.13380445648, -183416.15747405976, 0.07, -0.004, 0.978, 192.0, 0.0, 0.0, 0.0, 0.0, 0.0, 0.0, 0.0, 0.0, 0.0, 1.70899125357344E9, 0.0, 2024-02-26 18:47:33.573
34.0, 187500.0, 187500.0, 31543.362920685166, -183726.69025977736, 187500.0, -183142.482714949, -184709.9434983663, -183343.96133946913, 0.07, -0.004, 0.978, 192.0, 0.0, 0.0, 0.0, 0.0, 0.0, 0.0, 0.0, 0.0, 0.0, 1.708991253577435E9, 0.0, 2024-02-26 18:47:33.577
35.0, 187500.0, 187500.0, 32406.430829337936, -183823.6968307134, 187500.0, -183208.0403814364, -184816.94129907386, -183450.22153260966, 0.07, -0.004, 0.978, 192.0, 0.0, 0.0, 0.0, 0.0, 0.0, 0.0, 0.0, 0.0, 0.0, 1.70899125358143E9, 0.0, 2024-02-26 18:47:33.581
36.0, 187500.0, 187500.0, 32873.068198331384, -183905.14658750853, 187500.0, -183280.08005381585, -184907.57762284012, -183540.1649522978, 0.07, -0.004, 0.978, 192.0, 0.0, 0.0, 0.0, 0.0, 0.0, 0.0, 0.0, 0.0, 0.0, 1.708991253584447E9, 0.0, 2024-02-26 18:47:33.584
37.0, 187500.0, 187500.0, 31850.1182615898, -183722.5551870531, 187500.0, -183172.12112809674, -184728.8083706866, -183360.07694722142, 0.07, 0.002, 0.982, 192.0, 2.0, 48.0, 0.0, 16.0, 30.0, 176.0, 0.0, 0.0, 0.0, 1.708991253588448E9, 0.0, 2024-02-26 18:47:33.588
38.0, 187500.0, 187500.0, 31563.792415117314, -183630.3989446639, 187500.0, -183139.39817421415, -184642.30711964454, -183273.6203996683, 0.07, 0.002, 0.982, 192.0, 0.0, 0.0, 0.0, 0.0, 0.0, 0.0, 0.0, 0.0, 0.0, 1.708991253592487E9, 0.0, 2024-02-26 18:47:33.592
39.0, 187500.0, 187500.0, 32322.768249841723, -183703.62325949947, 187500.0, -183181.7323782125, -184725.4109055294, -183356.63477857527, 0.07, 0.002, 0.982, 192.0, 0.0, 0.0, 0.0, 0.0, 0.0, 0.0, 0.0, 0.0, 0.0, 1.708991253596471E9, 0.0, 2024-02-26 18:47:33.596
40.0, 187500.0, 187500.0, 33098.530244652065, -183800.71923741332, 187500.0, -183266.22197225358, -184833.21336903732, -183463.72198626067, 0.07, 0.002, 0.982, 192.0, 0.0, 0.0, 0.0, 0.0, 0.0, 0.0, 0.0, 0.0, 0.0, 1.708991253601485E9, 0.0, 2024-02-26 18:47:33.601
41.0, 187500.0, 187500.0, 32089.79601738406, -183635.98688077772, 187500.0, -183172.38934903019, -184672.32551244803, -183301.62713547077, 0.07, 0.002, 0.982, 192.0, 0.0, 0.0, 0.0, 0.0, 0.0, 0.0, 0.0, 0.0, 0.0, 1.708991253605491E9, 0.0, 2024-02-26 18:47:33.605
42.0, 187500.0, 187500.0, 31416.561474390208, -183507.48670190416, 187500.0, -183147.69067140706, -184549.12269701037, -183177.50789851046, 0.07, 0.002, 0.982, 192.0, 0.0, 0.0, 0.0, 0.0, 0.0, 0.0, 0.0, 0.0, 0.0, 1.708991253609504E9, 0.0, 2024-02-26 18:47:33.609
43.0, 187500.0, 187500.0, 31790.327345171852, -183554.55947572703, 187500.0, -183167.67313095013, -184605.49379652666, -183233.499018371, 0.07, 0.002, 0.982, 192.0, 0.0, 0.0, 0.0, 0.0, 0.0, 0.0, 0.0, 0.0, 0.0, 1.70899125361256E9, 0.0, 2024-02-26 18:47:33.612
44.0, 187500.0, 187500.0, 32652.590591024233, -183690.3686750375, 187500.0, -183281.80113813892, -184753.21647563178, -183379.6794271087, 0.07, 0.002, 0.982, 192.0, 0.0, 0.0, 0.0, 0.0, 0.0, 0.0, 0.0, 0.0, 0.0, 1.708991253616506E9, 0.0, 2024-02-26 18:47:33.616
45.0, 187500.0, 187500.0, 31804.05131626741, -183554.85004840494, 187500.0, -183183.7887387024, -184622.70463975726, -183249.3911086787, 0.07, 0.002, 0.982, 192.0, 0.0, 0.0, 0.0, 0.0, 0.0, 0.0, 0.0, 0.0, 0.0, 1.708991253620506E9, 0.0, 2024-02-26 18:47:33.620
46.0, 187500.0, 187500.0, 30940.715186681176, -183405.42863672122, 187500.0, -183150.35052899725, -184477.6418182423, -183148.65179641865, 0.07, 0.002, 0.982, 192.0, 0.0, 0.0, 0.0, 0.0, 0.0, 0.0, 0.0, 0.0, 0.0, 1.708991253624505E9, 0.0, 2024-02-26 18:47:33.624
47.0, 187500.0, 187500.0, 31134.996549486706, -183427.55686373197, 187500.0, -183197.8479859648, -184507.68256279023, -183234.41543989367, 0.07, 0.0, 0.982, 192.0, 2.0, 48.0, 0.0, 0.0, 30.0, 176.0, 0.0, 0.0, 0.0, 1.708991253629544E9, 0.0, 2024-02-26 18:47:33.629
48.0, 187500.0, 187500.0, 32167.758902044166, -183631.85180805347, 187500.0, -183365.37431065732, -184725.32149855155, -183435.42467778025, 0.07, 0.0, 0.982, 192.0, 0.0, 0.0, 0.0, 0.0, 0.0, 0.0, 0.0, 0.0, 0.0, 1.708991253633577E9, 0.0, 2024-02-26 18:47:33.633
49.0, 187500.0, 187500.0, 31724.367347284242, -183555.78882167206, 187500.0, -183279.92359160466, -184655.1817244508, -183364.54729611246, 0.07, 0.0, 0.982, 192.0, 0.0, 0.0, 0.0, 0.0, 0.0, 0.0, 0.0, 0.0, 0.0, 1.708991253636511E9, 0.0, 2024-02-26 18:47:33.636
50.0, 187500.0, 187500.0, 30875.671610316233, -183385.91556381175, 187500.0, -183141.45453470404, -184488.72828349212, -183195.88103245271, 0.07, 0.0, 0.982, 192.0, 0.0, 0.0, 0.0, 0.0, 0.0, 0.0, 0.0, 0.0, 0.0, 1.70899125364051E9, 0.0, 2024-02-26 18:47:33.640
51.0, 187500.0, 187500.0, 31005.13291420137, -183397.7396366286, 187500.0, -183153.30095926535, -184509.26953664655, -183214.67884953963, 0.07, 0.0, 0.982, 192.0, 0.0, 0.0, 0.0, 0.0, 0.0, 0.0, 0.0, 0.0, 0.0, 1.708991253644552E9, 0.0, 2024-02-26 18:47:33.644
52.0, 187500.0, 187500.0, 32044.57843835097, -183530.15137078182, 187500.0, -183265.28319898644, -184653.2818261721, -183358.06529022043, 0.07, 0.0, 0.982, 192.0, 0.0, 0.0, 0.0, 0.0, 0.0, 0.0, 0.0, 0.0, 0.0, 1.708991253648565E9, 0.0, 2024-02-26 18:47:33.648
53.0, 187500.0, 187500.0, 31962.972219344643, -183478.5188410901, 187500.0, -183225.51944560045, -184609.38300006188, -183312.24421408706, 0.07, 0.0, 0.982, 192.0, 0.0, 0.0, 0.0, 0.0, 0.0, 0.0, 0.0, 0.0, 0.0, 1.708991253652547E9, 0.0, 2024-02-26 18:47:33.652
54.0, 187500.0, 187500.0, 31050.886935101385, -183303.14705409374, 187500.0, -183144.89670335015, -184437.56514043393, -183150.84226737526, 0.07, 0.0, 0.982, 192.0, 0.0, 0.0, 0.0, 0.0, 0.0, 0.0, 0.0, 0.0, 0.0, 1.708991253656548E9, 0.0, 2024-02-26 18:47:33.656
55.0, 187500.0, 187500.0, 31000.930786243774, -183272.54751593442, 187500.0, -183101.7131330625, -184414.2299192226, -183134.81606660082, 0.07, 0.0, 0.982, 192.0, 0.0, 0.0, 0.0, 0.0, 0.0, 0.0, 0.0, 0.0, 0.0, 1.708991253661563E9, 0.0, 2024-02-26 18:47:33.661
56.0, 187500.0, 187500.0, 31873.36407582332, -183405.2498227656, 187500.0, -183208.9568029591, -184557.6610633923, -183274.8720973578, 0.07, 0.0, 0.982, 192.0, 0.0, 0.0, 0.0, 0.0, 0.0, 0.0, 0.0, 0.0, 0.0, 1.708991253664553E9, 0.0, 2024-02-26 18:47:33.664
57.0, 187500.0, 187500.0, 32014.425935080762, -183426.5957387204, 187500.0, -183240.53981787444, -184587.65710445133, -183303.79525468295, 0.068, -0.004, 0.982, 192.0, 2.0, 32.0, 255.0, 224.0, 30.0, 176.0, 0.0, 0.0, 0.0, 1.708991253668546E9, 0.0, 2024-02-26 18:47:33.668
58.0, 187500.0, 187500.0, 30985.12810291387, -183253.21325698058, 187500.0, -183159.96177911304, -184418.02971578, -183156.47490697802, 0.068, -0.004, 0.982, 192.0, 0.0, 0.0, 0.0, 0.0, 0.0, 0.0, 0.0, 0.0, 0.0, 1.708991253672548E9, 0.0, 2024-02-26 18:47:33.672
59.0, 187500.0, 187500.0, 30813.869036897308, -183210.7449425155, 187500.0, -183123.64019437318, -184383.38451187426, -183141.6333486597, 0.068, -0.004, 0.982, 192.0, 0.0, 0.0, 0.0, 0.0, 0.0, 0.0, 0.0, 0.0, 0.0, 1.708991253676542E9, 0.0, 2024-02-26 18:47:33.676
60.0, 187500.0, 187500.0, 31607.132447616157, -183320.60376651332, 187500.0, -183206.2969453689, -184504.62037379984, -183254.62141688127, 0.068, -0.004, 0.982, 192.0, 0.0, 0.0, 0.0, 0.0, 0.0, 0.0, 0.0, 0.0, 0.0, 1.708991253680544E9, 0.0, 2024-02-26 18:47:33.680
61.0, 187500.0, 187500.0, 32014.984728692143, -183396.42088370572, 187500.0, -183272.59221942333, -184590.6745899528, -183338.9769004556, 0.068, -0.004, 0.982, 192.0, 0.0, 0.0, 0.0, 0.0, 0.0, 0.0, 0.0, 0.0, 0.0, 1.708991253684582E9, 0.0, 2024-02-26 18:47:33.684
62.0, 187500.0, 187500.0, 30819.65813871123, -183231.15208520318, 187500.0, -183165.81793616034, -184429.272643241, -183186.2921340814, 0.068, -0.004, 0.982, 192.0, 0.0, 0.0, 0.0, 0.0, 0.0, 0.0, 0.0, 0.0, 0.0, 1.708991253689616E9, 0.0, 2024-02-26 18:47:33.689
63.0, 187500.0, 187500.0, 30299.018955113766, -183148.07065106282, 187500.0, -183121.71794435, -184353.0084911595, -183127.66350837512, 0.068, -0.004, 0.982, 192.0, 0.0, 0.0, 0.0, 0.0, 0.0, 0.0, 0.0, 0.0, 0.0, 1.708991253692598E9, 0.0, 2024-02-26 18:47:33.692
64.0, 187500.0, 187500.0, 30926.83475337443, -183227.10641945677, 187500.0, -183170.1765263291, -184441.11906780233, -183210.52142507094, 0.068, -0.004, 0.982, 192.0, 0.0, 0.0, 0.0, 0.0, 0.0, 0.0, 0.0, 0.0, 0.0, 1.708991253696599E9, 0.0, 2024-02-26 18:47:33.696
65.0, 187500.0, 187500.0, 31761.225373891044, -183321.98957466957, 187500.0, -183253.9508645476, -184546.66400512028, -183314.9711269106, 0.068, -0.004, 0.982, 192.0, 0.0, 0.0, 0.0, 0.0, 0.0, 0.0, 0.0, 0.0, 0.0, 1.708991253700599E9, 0.0, 2024-02-26 18:47:33.700
66.0, 187500.0, 187500.0, 30847.351950091357, -183097.17572893808, 187500.0, -183171.36116878525, -184410.89950929876, -183196.0374946639, 0.068, -0.004, 0.982, 192.0, 0.0, 0.0, 0.0, 0.0, 0.0, 0.0, 0.0, 0.0, 0.0, 1.708991253704619E9, 0.0, 2024-02-26 18:47:33.704
67.0, 187500.0, 187500.0, 30166.02607560469, -182915.59015698318, 187500.0, -183146.6848429066, -184297.26324048798, -183142.5274184379, 0.064, -0.01, 0.986, 192.0, 2.0, 0.0, 255.0, 176.0, 30.0, 208.0, 0.0, 0.0, 0.0, 1.708991253708608E9, 0.0, 2024-02-26 18:47:33.708
68.0, 187500.0, 187500.0, 30580.29330733935, -183184.9286776696, 187500.0, -183153.65858717664, -184314.92111860766, -183169.95300888456, 0.064, -0.01, 0.986, 192.0, 0.0, 0.0, 0.0, 0.0, 0.0, 0.0, 0.0, 0.0, 0.0, 1.708991253712597E9, 0.0, 2024-02-26 18:47:33.712
69.0, 187500.0, 187500.0, 31901.661384303738, -183712.51925379268, 187500.0, -183248.6982046006, -184446.37172774933, -183291.99353361054, 0.064, -0.01, 0.986, 192.0, 0.0, 0.0, 0.0, 0.0, 0.0, 0.0, 0.0, 0.0, 0.0, 1.708991253717588E9, 0.0, 2024-02-26 18:47:33.717
70.0, 187500.0, 187500.0, 31856.957895393123, -183721.88463471946, 187500.0, -183173.57399148634, -184323.77240941196, -183204.1511779012, 0.064, -0.01, 0.986, 192.0, 0.0, 0.0, 0.0, 0.0, 0.0, 0.0, 0.0, 0.0, 0.0, 1.708991253720588E9, 0.0, 2024-02-26 18:47:33.720
71.0, 187500.0, 187500.0, 31543.787603829816, -183603.42038910632, 187500.0, -183119.84039781577, -184210.40436153466, -183143.1756190271, 0.064, -0.01, 0.986, 192.0, 0.0, 0.0, 0.0, 0.0, 0.0, 0.0, 0.0, 0.0, 0.0, 1.70899125372463E9, 0.0, 2024-02-26 18:47:33.724
72.0, 187500.0, 187500.0, 31692.04672480187, -183671.4590992283, 187500.0, -183149.59056968577, -184288.5907636393, -183206.25224188, 0.064, -0.01, 0.986, 192.0, 0.0, 0.0, 0.0, 0.0, 0.0, 0.0, 0.0, 0.0, 0.0, 1.708991253728648E9, 0.0, 2024-02-26 18:47:33.728
73.0, 187500.0, 187500.0, 32336.02283430372, -183849.55779904817, 187500.0, -183313.22769084308, -184479.0946816319, -183394.029247049, 0.064, -0.01, 0.986, 192.0, 0.0, 0.0, 0.0, 0.0, 0.0, 0.0, 0.0, 0.0, 0.0, 1.708991253732641E9, 0.0, 2024-02-26 18:47:33.732
74.0, 187500.0, 187500.0, 31587.127636328656, -183868.31091264618, 187500.0, -183320.8719874468, -184506.58732731192, -183420.292546784, 0.064, -0.01, 0.986, 192.0, 0.0, 0.0, 0.0, 0.0, 0.0, 0.0, 0.0, 0.0, 0.0, 1.70899125373664E9, 0.0, 2024-02-26 18:47:33.736
75.0, 187500.0, 187500.0, 30443.54533476178, -183765.2246672183, 187500.0, -183207.5039395695, -184409.80427382045, -183322.6154235143, 0.064, -0.01, 0.986, 192.0, 0.0, 0.0, 0.0, 0.0, 0.0, 0.0, 0.0, 0.0, 0.0, 1.708991253740631E9, 0.0, 2024-02-26 18:47:33.740
76.0, 187500.0, 187500.0, 30351.612609817104, -183818.71239169984, 187500.0, -183251.0451377684, -184473.2385245846, -183385.7367498561, 0.064, -0.01, 0.986, 192.0, 0.0, 0.0, 0.0, 0.0, 0.0, 0.0, 0.0, 0.0, 0.0, 1.708991253745627E9, 0.0, 2024-02-26 18:47:33.745
77.0, 187500.0, 187500.0, 31193.088733326047, -184006.2882311688, 187500.0, -183427.4451050097, -184673.82307932654, -183585.69545575327, 0.062, -0.008, 0.98, 192.0, 1.0, 240.0, 255.0, 192.0, 30.0, 160.0, 0.0, 0.0, 0.0, 1.708991253748625E9, 0.0, 2024-02-26 18:47:33.748
78.0, 187500.0, 187500.0, 30932.400337743802, -184009.10455097017, 187500.0, -183418.90673862776, -184684.2836957316, -183595.35140935797, 0.062, -0.008, 0.98, 192.0, 0.0, 0.0, 0.0, 0.0, 0.0, 0.0, 0.0, 0.0, 0.0, 1.708991253752629E9, 0.0, 2024-02-26 18:47:33.752
79.0, 187500.0, 187500.0, 29835.53318208852, -183847.18851413592, 187500.0, -183245.72542258806, -184526.56978685496, -183435.93876790273, 0.062, -0.008, 0.98, 192.0, 0.0, 0.0, 0.0, 0.0, 0.0, 0.0, 0.0, 0.0, 0.0, 1.708991253756624E9, 0.0, 2024-02-26 18:47:33.756
80.0, 187500.0, 187500.0, 29845.18913569321, -183808.8776241395, 187500.0, -183196.10454989728, -184495.79143474, -183403.70755239818, 0.062, -0.008, 0.98, 192.0, 0.0, 0.0, 0.0, 0.0, 0.0, 0.0, 0.0, 0.0, 0.0, 1.708991253760652E9, 0.0, 2024-02-26 18:47:33.760
81.0, 187500.0, 187500.0, 30981.395361589835, -183919.74227663784, 187500.0, -183295.61451621228, -184617.40727632135, -183524.98811781267, 0.062, -0.008, 0.98, 192.0, 0.0, 0.0, 0.0, 0.0, 0.0, 0.0, 0.0, 0.0, 0.0, 1.708991253764727E9, 0.0, 2024-02-26 18:47:33.764
82.0, 187500.0, 187500.0, 31433.28057924278, -183935.2096838009, 187500.0, -183304.0634756164, -184640.9883667217, -183548.25628379063, 0.062, -0.008, 0.98, 192.0, 0.0, 0.0, 0.0, 0.0, 0.0, 0.0, 0.0, 0.0, 0.0, 1.708991253768674E9, 0.0, 2024-02-26 18:47:33.768
83.0, 187500.0, 187500.0, 30457.202250623974, -183745.95746349782, 187500.0, -183176.4797182655, -184455.44653599817, -183360.90396176625, 0.062, -0.008, 0.98, 192.0, 0.0, 0.0, 0.0, 0.0, 0.0, 0.0, 0.0, 0.0, 0.0, 1.708991253772667E9, 0.0, 2024-02-26 18:47:33.772
84.0, 187500.0, 187500.0, 30254.360169692063, -183680.84683189951, 187500.0, -183135.4195637011, -184396.66144808073, -183301.13539709276, 0.062, -0.008, 0.98, 192.0, 0.0, 0.0, 0.0, 0.0, 0.0, 0.0, 0.0, 0.0, 0.0, 1.708991253775664E9, 0.0, 2024-02-26 18:47:33.775
85.0, 187500.0, 187500.0, 31185.399733233422, -183768.15274574194, 187500.0, -183192.6400295067, -184495.03147542852, -183398.52194768452, 0.062, -0.008, 0.98, 192.0, 0.0, 0.0, 0.0, 0.0, 0.0, 0.0, 0.0, 0.0, 0.0, 1.708991253779674E9, 0.0, 2024-02-26 18:47:33.779
86.0, 187500.0, 187500.0, 32084.49865394815, -183819.22648182232, 187500.0, -183245.43484991015, -184556.02938604707, -183458.11169840238, 0.062, -0.008, 0.98, 192.0, 0.0, 0.0, 0.0, 0.0, 0.0, 0.0, 0.0, 0.0, 0.0, 1.708991253784669E9, 0.0, 2024-02-26 18:47:33.784
87.0, 187500.0, 187500.0, 31394.299136912723, -183670.07329107207, 187500.0, -183159.15711631265, -184411.30184069896, -183312.33362106487, 0.064, -0.006, 0.984, 192.0, 2.0, 0.0, 255.0, 208.0, 30.0, 192.0, 0.0, 0.0, 0.0, 1.708991253788678E9, 0.0, 2024-02-26 18:47:33.788
88.0, 187500.0, 187500.0, 30975.06981790898, -183596.826624492, 187500.0, -183159.11241282374, -184344.26895907748, -183244.71959408757, 0.064, -0.006, 0.984, 192.0, 0.0, 0.0, 0.0, 0.0, 0.0, 0.0, 0.0, 0.0, 0.0, 1.708991253792679E9, 0.0, 2024-02-26 18:47:33.792
89.0, 187500.0, 187500.0, 31293.649231630476, -183688.1558523364, 187500.0, -183226.77114328995, -184446.12585856032, -183345.39185111425, 0.064, -0.006, 0.984, 192.0, 0.0, 0.0, 0.0, 0.0, 0.0, 0.0, 0.0, 0.0, 0.0, 1.708991253796664E9, 0.0, 2024-02-26 18:47:33.796
90.0, 187500.0, 187500.0, 31797.211682464087, -183852.01649093826, 187500.0, -183369.41997640373, -184621.74351474567, -183520.04838228805, 0.064, -0.006, 0.984, 192.0, 0.0, 0.0, 0.0, 0.0, 0.0, 0.0, 0.0, 0.0, 0.0, 1.708991253800715E9, 0.0, 2024-02-26 18:47:33.800
91.0, 187500.0, 187500.0, 30731.301692879402, -183710.97698342527, 187500.0, -183217.02578270744, -184485.6884462462, -183384.5297556555, 0.064, -0.006, 0.984, 192.0, 0.0, 0.0, 0.0, 0.0, 0.0, 0.0, 0.0, 0.0, 0.0, 1.708991253803709E9, 0.0, 2024-02-26 18:47:33.803
92.0, 187500.0, 187500.0, 30098.277938160652, -183625.32509867253, 187500.0, -183119.9298047936, -184406.0715324964, -183303.99642038305, 0.064, -0.006, 0.984, 192.0, 0.0, 0.0, 0.0, 0.0, 0.0, 0.0, 0.0, 0.0, 0.0, 1.708991253807709E9, 0.0, 2024-02-26 18:47:33.807
93.0, 187500.0, 187500.0, 30532.28176024935, -183715.26851836068, 187500.0, -183199.05498016538, -184506.050885445, -183402.6346686643, 0.064, -0.006, 0.984, 192.0, 0.0, 0.0, 0.0, 0.0, 0.0, 0.0, 0.0, 0.0, 0.0, 1.708991253812717E9, 0.0, 2024-02-26 18:47:33.812
94.0, 187500.0, 187500.0, 31589.340459029732, -183901.32443920666, 187500.0, -183373.46564215014, -184703.61795468547, -183599.3747233599, 0.064, -0.006, 0.984, 192.0, 0.0, 0.0, 0.0, 0.0, 0.0, 0.0, 0.0, 0.0, 0.0, 1.708991253816712E9, 0.0, 2024-02-26 18:47:33.816
95.0, 187500.0, 187500.0, 31034.748975604653, -183800.04868507967, 187500.0, -183267.58542866533, -184607.572508761, -183503.06105650202, 0.064, -0.006, 0.984, 192.0, 0.0, 0.0, 0.0, 0.0, 0.0, 0.0, 0.0, 0.0, 0.0, 1.708991253820705E9, 0.0, 2024-02-26 18:47:33.820
96.0, 187500.0, 187500.0, 30374.701961839433, -183689.63106747044, 187500.0, -183156.83253488928, -184502.51930982107, -183396.286773239, 0.064, -0.006, 0.984, 192.0, 0.0, 0.0, 0.0, 0.0, 0.0, 0.0, 0.0, 0.0, 0.0, 1.70899125382471E9, 0.0, 2024-02-26 18:47:33.824
97.0, 187500.0, 187500.0, 30719.65643401819, -183713.45802705982, 187500.0, -183164.81210765985, -184534.7058218367, -183427.71332594316, 0.068, -0.004, 0.988, 192.0, 2.0, 32.0, 255.0, 224.0, 30.0, 224.0, 0.0, 0.0, 0.0, 1.708991253828729E9, 0.0, 2024-02-26 18:47:33.828
98.0, 187500.0, 187500.0, 31879.13082589279, -183862.23123815435, 187500.0, -183302.99059188255, -184694.7443121367, -183588.2212028767, 0.068, -0.004, 0.988, 192.0, 0.0, 0.0, 0.0, 0.0, 0.0, 0.0, 0.0, 0.0, 0.0, 1.708991253831722E9, 0.0, 2024-02-26 18:47:33.831
99.0, 187500.0, 187500.0, 31611.714555229493, -183812.27508929672, 187500.0, -183261.2598849845, -184652.29834941606, -183544.41178374432, 0.068, -0.004, 0.988, 192.0, 0.0, 0.0, 0.0, 0.0, 0.0, 0.0, 0.0, 0.0, 0.0, 1.708991253836735E9, 0.0, 2024-02-26 18:47:33.836
100.0, 187500.0, 187500.0, 30683.714828934055, -183651.23077049624, 187500.0, -183194.31641034083, -184495.7467312511, -183386.4296539342, 0.068, -0.004, 0.988, 192.0, 0.0, 0.0, 0.0, 0.0, 0.0, 0.0, 0.0, 0.0, 0.0, 1.708991253840724E9, 0.0, 2024-02-26 18:47:33.840
101.0, 187500.0, 187500.0, 30691.716753449055, -183678.67871268734, 187500.0, -183218.07631469684, -184531.48717063514, -183422.3936107628, 0.068, -0.004, 0.988, 192.0, 0.0, 0.0, 0.0, 0.0, 0.0, 0.0, 0.0, 0.0, 0.0, 1.708991253844828E9, 0.0, 2024-02-26 18:47:33.844
102.0, 187500.0, 187500.0, 31576.689371668028, -183831.56464476165, 187500.0, -183344.45307784714, -184696.1971755263, -183586.29895285357, 0.068, -0.004, 0.988, 192.0, 0.0, 0.0, 0.0, 0.0, 0.0, 0.0, 0.0, 0.0, 0.0, 1.708991253848812E9, 0.0, 2024-02-26 18:47:33.848
103.0, 187500.0, 187500.0, 31464.215393568924, -183825.08263886962, 187500.0, -183326.68344100518, -184698.47705346072, -183587.21537437625, 0.068, -0.004, 0.988, 192.0, 0.0, 0.0, 0.0, 0.0, 0.0, 0.0, 0.0, 0.0, 0.0, 1.70899125385281E9, 0.0, 2024-02-26 18:47:33.852
104.0, 187500.0, 187500.0, 30274.208518768373, -183679.97511386577, 187500.0, -183169.61773271774, -184557.28108373657, -183444.0971546289, 0.068, -0.004, 0.988, 192.0, 0.0, 0.0, 0.0, 0.0, 0.0, 0.0, 0.0, 0.0, 0.0, 1.70899125385582E9, 0.0, 2024-02-26 18:47:33.855
105.0, 187500.0, 187500.0, 29907.39404051233, -183675.48241323023, 187500.0, -183153.56918019883, -184560.23151400467, -183445.72883197415, 0.068, -0.004, 0.988, 192.0, 0.0, 0.0, 0.0, 0.0, 0.0, 0.0, 0.0, 0.0, 0.0, 1.708991253859813E9, 0.0, 2024-02-26 18:47:33.859
106.0, 187500.0, 187500.0, 30578.639278249655, -183820.00879287825, 187500.0, -183287.67964693066, -184717.11840833645, -183602.45926409477, 0.068, -0.004, 0.988, 192.0, 0.0, 0.0, 0.0, 0.0, 0.0, 0.0, 0.0, 0.0, 0.0, 1.708991253863827E9, 0.0, 2024-02-26 18:47:33.863
107.0, 187500.0, 187500.0, 30837.53953427548, -183880.11263371859, 187500.0, -183336.69702252114, -184786.45351963682, -183672.12965156193, 0.068, -0.004, 0.982, 192.0, 2.0, 32.0, 255.0, 224.0, 30.0, 176.0, 0.0, 0.0, 0.0, 1.708991253868813E9, 0.0, 2024-02-26 18:47:33.868
108.0, 187500.0, 187500.0, 29791.56730074493, -183739.49780935023, 187500.0, -183189.51078528297, -184649.75025054815, -183534.04057431707, 0.068, -0.004, 0.982, 192.0, 0.0, 0.0, 0.0, 0.0, 0.0, 0.0, 0.0, 0.0, 0.0, 1.708991253872817E9, 0.0, 2024-02-26 18:47:33.872
109.0, 187500.0, 187500.0, 29438.320331373256, -183697.02949488515, 187500.0, -183161.05701459135, -184614.54625303106, -183497.47312038817, 0.068, -0.004, 0.982, 192.0, 0.0, 0.0, 0.0, 0.0, 0.0, 0.0, 0.0, 0.0, 0.0, 1.708991253876814E9, 0.0, 2024-02-26 18:47:33.876
110.0, 187500.0, 187500.0, 30104.1564469524, -183775.17119350092, 187500.0, -183230.39212589173, -184703.26032677418, -183585.11431039745, 0.068, -0.004, 0.982, 192.0, 0.0, 0.0, 0.0, 0.0, 0.0, 0.0, 0.0, 0.0, 0.0, 1.708991253879807E9, 0.0, 2024-02-26 18:47:33.879
111.0, 187500.0, 187500.0, 30819.23345556658, -183856.77741250725, 187500.0, -183300.71071394812, -184794.41074066292, -183676.1529655639, 0.068, -0.004, 0.982, 192.0, 0.0, 0.0, 0.0, 0.0, 0.0, 0.0, 0.0, 0.0, 0.0, 1.708991253883812E9, 0.0, 2024-02-26 18:47:33.883
112.0, 187500.0, 187500.0, 29994.476436910205, -183719.73886725176, 187500.0, -183230.23566368053, -184661.59667510947, -183541.99779534314, 0.068, -0.004, 0.982, 192.0, 0.0, 0.0, 0.0, 0.0, 0.0, 0.0, 0.0, 0.0, 0.0, 1.708991253887808E9, 0.0, 2024-02-26 18:47:33.887
113.0, 187500.0, 187500.0, 29593.86612103774, -183622.62053759344, 187500.0, -183197.1997853756, -184570.8262408765, -183449.57333202046, 0.068, -0.004, 0.982, 192.0, 0.0, 0.0, 0.0, 0.0, 0.0, 0.0, 0.0, 0.0, 0.0, 1.708991253891813E9, 0.0, 2024-02-26 18:47:33.891
114.0, 187500.0, 187500.0, 30170.474072751294, -183682.0538261001, 187500.0, -183219.3950676197, -184640.40722136584, -183517.79085609806, 0.068, -0.004, 0.982, 192.0, 0.0, 0.0, 0.0, 0.0, 0.0, 0.0, 0.0, 0.0, 0.0, 1.708991253896811E9, 0.0, 2024-02-26 18:47:33.896
115.0, 187500.0, 187500.0, 31131.599084329497, -183799.89222286848, 187500.0, -183324.1129903928, -184769.44384210632, -183645.6428343824, 0.068, -0.004, 0.982, 192.0, 0.0, 0.0, 0.0, 0.0, 0.0, 0.0, 0.0, 0.0, 0.0, 1.708991253900815E9, 0.0, 2024-02-26 18:47:33.900
116.0, 187500.0, 187500.0, 30464.8912507166, -183662.4960497017, 187500.0, -183232.2473206815, -184636.80859050853, -183511.59942288394, 0.07200000000000001, -0.006, 0.984, 192.0, 2.0, 64.0, 255.0, 208.0, 30.0, 192.0, 0.0, 0.0, 0.0, 1.708991253904819E9, 0.0, 2024-02-26 18:47:33.904
117.0, 187500.0, 187500.0, 29950.577610799985, -183548.74802216864, 187500.0, -183180.7936049454, -184527.7544293111, -183402.70172389768, 0.07200000000000001, -0.006, 0.984, 192.0, 0.0, 0.0, 0.0, 0.0, 0.0, 0.0, 0.0, 0.0, 0.0, 1.708991253907814E9, 0.0, 2024-02-26 18:47:33.907
118.0, 187500.0, 187500.0, 30372.645601349548, -183590.3893220889, 187500.0, -183187.3426660708, -184577.8670403799, -183452.88139019985, 0.07200000000000001, -0.006, 0.984, 192.0, 0.0, 0.0, 0.0, 0.0, 0.0, 0.0, 0.0, 0.0, 0.0, 1.708991253911824E9, 0.0, 2024-02-26 18:47:33.911
119.0, 187500.0, 187500.0, 31338.620941474554, -183741.12948669548, 187500.0, -183323.0624584034, -184739.15722836938, -183614.21628167824, 0.07200000000000001, -0.006, 0.984, 192.0, 0.0, 0.0, 0.0, 0.0, 0.0, 0.0, 0.0, 0.0, 0.0, 1.708991253915818E9, 0.0, 2024-02-26 18:47:33.915
120.0, 187500.0, 187500.0, 30623.365118904727, -183674.2530672852, 187500.0, -183263.8973908302, -184679.92510556284, -183553.59835071545, 0.07200000000000001, -0.006, 0.984, 192.0, 0.0, 0.0, 0.0, 0.0, 0.0, 0.0, 0.0, 0.0, 0.0, 1.708991253919827E9, 0.0, 2024-02-26 18:47:33.919
121.0, 187500.0, 187500.0, 29608.215940978047, -183540.00849008662, 187500.0, -183184.3922358027, -184550.28498772206, -183421.85716889586, 0.07200000000000001, -0.006, 0.984, 192.0, 0.0, 0.0, 0.0, 0.0, 0.0, 0.0, 0.0, 0.0, 0.0, 1.708991253924838E9, 0.0, 2024-02-26 18:47:33.924
122.0, 187500.0, 187500.0, 29635.82034538035, -183546.93753086778, 187500.0, -183182.5370410129, -184567.58523793047, -183436.89989291428, 0.07200000000000001, -0.006, 0.984, 192.0, 0.0, 0.0, 0.0, 0.0, 0.0, 0.0, 0.0, 0.0, 0.0, 1.708991253928823E9, 0.0, 2024-02-26 18:47:33.928
123.0, 187500.0, 187500.0, 30649.31549421734, -183716.4084573279, 187500.0, -183332.78546724148, -184748.99199592974, -183618.2395956802, 0.07200000000000001, -0.006, 0.984, 192.0, 0.0, 0.0, 0.0, 0.0, 0.0, 0.0, 0.0, 0.0, 0.0, 1.708991253932837E9, 0.0, 2024-02-26 18:47:33.932
124.0, 187500.0, 187500.0, 30449.11091913115, -183685.49599474622, 187500.0, -183300.75541743703, -184724.62859447344, -183592.91506921235, 0.07200000000000001, -0.006, 0.984, 192.0, 0.0, 0.0, 0.0, 0.0, 0.0, 0.0, 0.0, 0.0, 0.0, 1.708991253935842E9, 0.0, 2024-02-26 18:47:33.935
125.0, 187500.0, 187500.0, 29550.973123428004, -183518.48376017617, 187500.0, -183207.3921808472, -184561.57261867198, -183429.41205852176, 0.07200000000000001, -0.006, 0.984, 192.0, 0.0, 0.0, 0.0, 0.0, 0.0, 0.0, 0.0, 0.0, 0.0, 1.708991253939829E9, 0.0, 2024-02-26 18:47:33.939
126.0, 187500.0, 187500.0, 29528.867248161707, -183476.9095154893, 187500.0, -183188.21438410456, -184528.46968513366, -183394.61039240487, 0.07200000000000001, 0.004, 0.978, 192.0, 2.0, 64.0, 0.0, 32.0, 30.0, 144.0, 0.0, 0.0, 0.0, 1.708991253943865E9, 0.0, 2024-02-26 18:47:33.943
127.0, 187500.0, 187500.0, 30437.510363758847, -183644.61465413746, 187500.0, -183334.79712424244, -184708.0436000876, -183573.44669979176, 0.07200000000000001, 0.004, 0.978, 192.0, 0.0, 0.0, 0.0, 0.0, 0.0, 0.0, 0.0, 0.0, 0.0, 1.708991253947838E9, 0.0, 2024-02-26 18:47:33.947
128.0, 187500.0, 187500.0, 30373.29380193875, -183679.32691327654, 187500.0, -183356.38890938627, -184751.27187386417, -183616.27264216813, 0.07200000000000001, 0.004, 0.978, 192.0, 0.0, 0.0, 0.0, 0.0, 0.0, 0.0, 0.0, 0.0, 0.0, 1.708991253951835E9, 0.0, 2024-02-26 18:47:33.951
129.0, 187500.0, 187500.0, 29172.11105491055, -183497.562527366, 187500.0, -183208.71093377005, -184572.83789787744, -183436.56461674746, 0.07200000000000001, 0.004, 0.978, 192.0, 0.0, 0.0, 0.0, 0.0, 0.0, 0.0, 0.0, 0.0, 0.0, 1.708991253956831E9, 0.0, 2024-02-26 18:47:33.956
130.0, 187500.0, 187500.0, 28885.628746226877, -183446.46643954117, 187500.0, -183177.06086362136, -184528.73790606714, -183390.96705805865, 0.07200000000000001, 0.004, 0.978, 192.0, 0.0, 0.0, 0.0, 0.0, 0.0, 0.0, 0.0, 0.0, 0.0, 1.708991253960838E9, 0.0, 2024-02-26 18:47:33.960
131.0, 187500.0, 187500.0, 29676.120540633267, -183566.98704564417, 187500.0, -183270.1558792777, -184659.3838524084, -183520.98715555517, 0.07200000000000001, 0.004, 0.978, 192.0, 0.0, 0.0, 0.0, 0.0, 0.0, 0.0, 0.0, 0.0, 0.0, 1.708991253963875E9, 0.0, 2024-02-26 18:47:33.963
132.0, 187500.0, 187500.0, 30055.340237062006, -183614.81977877853, 187500.0, -183307.6174029848, -184716.9619461253, -183577.71588298274, 0.07200000000000001, 0.004, 0.978, 192.0, 0.0, 0.0, 0.0, 0.0, 0.0, 0.0, 0.0, 0.0, 0.0, 1.708991253967878E9, 0.0, 2024-02-26 18:47:33.967
133.0, 187500.0, 187500.0, 28993.20769229027, -183473.24382939862, 187500.0, -183213.27068963894, -184580.23632529215, -183439.91737841576, 0.07200000000000001, 0.004, 0.978, 192.0, 0.0, 0.0, 0.0, 0.0, 0.0, 0.0, 0.0, 0.0, 0.0, 1.708991253971883E9, 0.0, 2024-02-26 18:47:33.971
134.0, 187500.0, 187500.0, 28571.251460462983, -183419.01849735004, 187500.0, -183187.07444513732, -184533.36471716937, -183391.57055515892, 0.07200000000000001, 0.004, 0.978, 192.0, 0.0, 0.0, 0.0, 0.0, 0.0, 0.0, 0.0, 0.0, 0.0, 1.708991253975881E9, 0.0, 2024-02-26 18:47:33.975
135.0, 187500.0, 187500.0, 29128.18987705587, -183521.54594916655, 187500.0, -183259.0470622834, -184646.39748887988, -183503.97747802467, 0.07200000000000001, 0.004, 0.978, 192.0, 0.0, 0.0, 0.0, 0.0, 0.0, 0.0, 0.0, 0.0, 0.0, 1.708991253979882E9, 0.0, 2024-02-26 18:47:33.979
136.0, 187500.0, 187500.0, 29726.233151702065, -183633.3940784209, 187500.0, -183359.78637454347, -184768.12508918348, -183626.46503763975, 0.066, 0.0, 0.98, 192.0, 2.0, 16.0, 0.0, 0.0, 30.0, 160.0, 0.0, 0.0, 0.0, 1.708991253984873E9, 0.0, 2024-02-26 18:47:33.984
137.0, 187500.0, 187500.0, 28704.78078183899, -183487.057207472, 187500.0, -183233.99075674903, -184626.325622359, -183483.1680039368, 0.066, 0.0, 0.98, 192.0, 0.0, 0.0, 0.0, 0.0, 0.0, 0.0, 0.0, 0.0, 0.0, 1.708991253988872E9, 0.0, 2024-02-26 18:47:33.988
138.0, 187500.0, 187500.0, 28232.577828476173, -183404.2439942651, 187500.0, -183184.5263462694, -184549.4579731772, -183404.91454659874, 0.066, 0.0, 0.98, 192.0, 0.0, 0.0, 0.0, 0.0, 0.0, 0.0, 0.0, 0.0, 0.0, 1.708991253992064E9, 0.0, 2024-02-26 18:47:33.992
139.0, 187500.0, 187500.0, 29005.948186629797, -183481.804547525, 187500.0, -183240.2939486854, -184636.49566608618, -183491.75107380762, 0.066, 0.0, 0.98, 192.0, 0.0, 0.0, 0.0, 0.0, 0.0, 0.0, 0.0, 0.0, 0.0, 1.708991253995877E9, 0.0, 2024-02-26 18:47:33.995
140.0, 187500.0, 187500.0, 30327.137449638543, -183629.23665395222, 187500.0, -183374.20324971716, -184795.8189005636, -183651.2978257296, 0.066, 0.0, 0.98, 192.0, 0.0, 0.0, 0.0, 0.0, 0.0, 0.0, 0.0, 0.0, 0.0, 1.708991253999895E9, 0.0, 2024-02-26 18:47:33.999
141.0, 187500.0, 187500.0, 29770.154329556746, -183521.3671352109, 187500.0, -183260.8128500954, -184693.6490766584, -183548.09982157944, 0.066, 0.0, 0.98, 192.0, 0.0, 0.0, 0.0, 0.0, 0.0, 0.0, 0.0, 0.0, 0.0, 1.708991254005925E9, 0.0, 2024-02-26 18:47:34.005
142.0, 187500.0, 187500.0, 28914.082516918483, -183434.55295974648, 187500.0, -183175.8762211652, -184612.3781338189, -183465.3536636059, 0.066, 0.0, 0.98, 192.0, 0.0, 0.0, 0.0, 0.0, 0.0, 0.0, 0.0, 0.0, 0.0, 1.708991254008921E9, 0.0, 2024-02-26 18:47:34.008
143.0, 187500.0, 187500.0, 28908.069897660007, -183511.55471939503, 187500.0, -183238.21523645107, -184699.66169591688, -183551.65374894784, 0.066, 0.0, 0.98, 192.0, 0.0, 0.0, 0.0, 0.0, 0.0, 0.0, 0.0, 0.0, 0.0, 1.708991254012915E9, 0.0, 2024-02-26 18:47:34.012
144.0, 187500.0, 187500.0, 29769.1261493118, -183705.05377114462, 187500.0, -183418.61616594985, -184904.67189606096, -183756.50748688073, 0.066, 0.0, 0.98, 192.0, 0.0, 0.0, 0.0, 0.0, 0.0, 0.0, 0.0, 0.0, 0.0, 1.708991254016939E9, 0.0, 2024-02-26 18:47:34.016
145.0, 187500.0, 187500.0, 29260.914535631484, -183645.68753787133, 187500.0, -183347.06823194842, -184851.31828204612, -183702.12569262096, 0.066, 0.0, 0.98, 192.0, 0.0, 0.0, 0.0, 0.0, 0.0, 0.0, 0.0, 0.0, 0.0, 1.708991254019916E9, 0.0, 2024-02-26 18:47:34.019
146.0, 187500.0, 187500.0, 28391.722248997958, -183544.1212110664, 187500.0, -183235.17539920515, -184757.105679167, -183606.41552286333, 0.07, 0.0, 0.982, 192.0, 2.0, 48.0, 0.0, 0.0, 30.0, 176.0, 0.0, 0.0, 0.0, 1.708991254023931E9, 0.0, 2024-02-26 18:47:34.023
147.0, 187500.0, 187500.0, 28339.933257095014, -183592.71390351225, 187500.0, -183273.28512350144, -184815.51078742874, -183663.21130552428, 0.07, 0.0, 0.982, 192.0, 0.0, 0.0, 0.0, 0.0, 0.0, 0.0, 0.0, 0.0, 0.0, 1.708991254027926E9, 0.0, 2024-02-26 18:47:34.027
148.0, 187500.0, 187500.0, 29082.100579989026, -183733.0158034582, 187500.0, -183402.1429302863, -184966.63093169106, -183812.9903451193, 0.07, 0.0, 0.982, 192.0, 0.0, 0.0, 0.0, 0.0, 0.0, 0.0, 0.0, 0.0, 0.0, 1.708991254031924E9, 0.0, 2024-02-26 18:47:34.031
149.0, 187500.0, 187500.0, 28682.38433389477, -183700.42696004236, 187500.0, -183364.07790947892, -184941.99930930132, -183787.28583899568, 0.07, 0.0, 0.982, 192.0, 0.0, 0.0, 0.0, 0.0, 0.0, 0.0, 0.0, 0.0, 0.0, 1.70899125403592E9, 0.0, 2024-02-26 18:47:34.035
150.0, 187500.0, 187500.0, 27629.393652605257, -183511.7111816062, 187500.0, -183233.20844569308, -184756.613940789, -183600.3805518604, 0.07, 0.0, 0.982, 192.0, 0.0, 0.0, 0.0, 0.0, 0.0, 0.0, 0.0, 0.0, 0.0, 1.708991254040937E9, 0.0, 2024-02-26 18:47:34.040
151.0, 187500.0, 187500.0, 27642.827051022894, -183481.3575126359, 187500.0, -183208.3980093477, -184732.60816724398, -183575.90539168185, 0.07, 0.0, 0.982, 192.0, 0.0, 0.0, 0.0, 0.0, 0.0, 0.0, 0.0, 0.0, 0.0, 1.708991254043967E9, 0.0, 2024-02-26 18:47:34.043
152.0, 187500.0, 187500.0, 28714.48143893259, -183615.02094447863, 187500.0, -183316.8710251893, -184877.55923003666, -183720.47647481877, 0.07, 0.0, 0.982, 192.0, 0.0, 0.0, 0.0, 0.0, 0.0, 0.0, 0.0, 0.0, 0.0, 1.708991254047956E9, 0.0, 2024-02-26 18:47:34.047
153.0, 187500.0, 187500.0, 29055.27848664266, -183624.5427876166, 187500.0, -183328.00219392803, -184894.90418373398, -183736.94971048232, 0.07, 0.0, 0.982, 192.0, 0.0, 0.0, 0.0, 0.0, 0.0, 0.0, 0.0, 0.0, 0.0, 1.708991254051961E9, 0.0, 2024-02-26 18:47:34.051
154.0, 187500.0, 187500.0, 28216.596331190627, -183450.86973319887, 187500.0, -183244.16080047618, -184724.4497805178, -183565.46712702123, 0.07, 0.0, 0.982, 192.0, 0.0, 0.0, 0.0, 0.0, 0.0, 0.0, 0.0, 0.0, 0.0, 1.708991254057436E9, 0.0, 2024-02-26 18:47:34.057
155.0, 187500.0, 187500.0, 28172.965726013867, -183402.07587505292, 187500.0, -183204.46410232355, -184683.05434978657, -183523.0211643006, 0.07, 0.0, 0.982, 192.0, 0.0, 0.0, 0.0, 0.0, 0.0, 0.0, 0.0, 0.0, 0.0, 1.708991254059961E9, 0.0, 2024-02-26 18:47:34.059
156.0, 187500.0, 187500.0, 29147.457080776345, -183525.83748410197, 187500.0, -183298.58729822485, -184818.19299676336, -183657.17633452135, 0.07200000000000001, -0.004, 0.978, 192.0, 2.0, 64.0, 255.0, 224.0, 30.0, 144.0, 0.0, 0.0, 0.0, 1.708991254063963E9, 0.0, 2024-02-26 18:47:34.063
157.0, 187500.0, 187500.0, 29816.355385345865, -183608.3824763754, 187500.0, -183371.96807527164, -184911.2880124197, -183748.79613504364, 0.07200000000000001, -0.004, 0.978, 192.0, 0.0, 0.0, 0.0, 0.0, 0.0, 0.0, 0.0, 0.0, 0.0, 1.708991254068976E9, 0.0, 2024-02-26 18:47:34.068
158.0, 187500.0, 187500.0, 28921.458592588737, -183454.53541928955, 187500.0, -183246.41832666617, -184761.93365596936, -183597.81010124806, 0.07200000000000001, -0.004, 0.978, 192.0, 0.0, 0.0, 0.0, 0.0, 0.0, 0.0, 0.0, 0.0, 0.0, 1.708991254072006E9, 0.0, 2024-02-26 18:47:34.072
159.0, 187500.0, 187500.0, 28607.19306554712, -183420.56076771746, 187500.0, -183209.51559657045, -184734.23984458923, -183569.71395846774, 0.07200000000000001, -0.004, 0.978, 192.0, 0.0, 0.0, 0.0, 0.0, 0.0, 0.0, 0.0, 0.0, 0.0, 1.708991254074982E9, 0.0, 2024-02-26 18:47:34.074
160.0, 187500.0, 187500.0, 29245.581238935145, -183537.8627226189, 187500.0, -183307.70680996263, -184862.3823955515, -183697.05184662962, 0.07200000000000001, -0.004, 0.978, 192.0, 0.0, 0.0, 0.0, 0.0, 0.0, 0.0, 0.0, 0.0, 0.0, 1.708991254080004E9, 0.0, 2024-02-26 18:47:34.080
161.0, 187500.0, 187500.0, 29955.45029109124, -183676.7564626642, 187500.0, -183434.97764289114, -185011.96026944643, -183846.24974086878, 0.07200000000000001, -0.004, 0.978, 192.0, 0.0, 0.0, 0.0, 0.0, 0.0, 0.0, 0.0, 0.0, 0.0, 1.708991254084009E9, 0.0, 2024-02-26 18:47:34.084
162.0, 187500.0, 187500.0, 28936.590723584977, -183574.8772114369, 187500.0, -183325.29763284896, -184915.33367816612, -183748.617321088, 0.07200000000000001, -0.004, 0.978, 192.0, 0.0, 0.0, 0.0, 0.0, 0.0, 0.0, 0.0, 0.0, 0.0, 1.708991254088018E9, 0.0, 2024-02-26 18:47:34.088
163.0, 187500.0, 187500.0, 28242.077319869677, -183462.6043990379, 187500.0, -183244.51842838747, -184807.44180768036, -183640.39017443542, 0.07200000000000001, -0.004, 0.978, 192.0, 0.0, 0.0, 0.0, 0.0, 0.0, 0.0, 0.0, 0.0, 0.0, 1.708991254092029E9, 0.0, 2024-02-26 18:47:34.092
164.0, 187500.0, 187500.0, 28639.62544675177, -183518.68492587627, 187500.0, -183292.32880977736, -184872.97712242333, -183704.96436416678, 0.07200000000000001, -0.004, 0.978, 192.0, 0.0, 0.0, 0.0, 0.0, 0.0, 0.0, 0.0, 0.0, 0.0, 1.708991254097026E9, 0.0, 2024-02-26 18:47:34.097
165.0, 187500.0, 187500.0, 29607.701850855574, -183649.26381698417, 187500.0, -183408.2002530337, -185014.84364448115, -183846.49561005778, 0.07200000000000001, -0.004, 0.978, 192.0, 0.0, 0.0, 0.0, 0.0, 0.0, 0.0, 0.0, 0.0, 0.0, 1.708991254100028E9, 0.0, 2024-02-26 18:47:34.100
166.0, 187500.0, 187500.0, 28986.099837553484, -183478.31767539, 187500.0, -183296.88856564625, -184846.7808779217, -183677.8964016314, 0.068, -0.006, 0.98, 192.0, 2.0, 32.0, 255.0, 208.0, 30.0, 160.0, 0.0, 0.0, 0.0, 1.708991254104039E9, 0.0, 2024-02-26 18:47:34.104
167.0, 187500.0, 187500.0, 28373.639687733616, -183331.1314381518, 187500.0, -183245.32309118786, -184704.5567279526, -183534.6217196729, 0.068, -0.006, 0.98, 192.0, 0.0, 0.0, 0.0, 0.0, 0.0, 0.0, 0.0, 0.0, 0.0, 1.708991254108063E9, 0.0, 2024-02-26 18:47:34.108
168.0, 187500.0, 187500.0, 28648.43203406716, -183323.08481014788, 187500.0, -183240.71863183007, -184704.06498957457, -183532.85593186092, 0.068, -0.006, 0.98, 192.0, 0.0, 0.0, 0.0, 0.0, 0.0, 0.0, 0.0, 0.0, 0.0, 1.708991254112079E9, 0.0, 2024-02-26 18:47:34.112
169.0, 187500.0, 187500.0, 29624.48801094151, -183456.88235245735, 187500.0, -183348.76696452702, -184848.09963084458, -183676.5105934752, 0.068, -0.006, 0.98, 192.0, 0.0, 0.0, 0.0, 0.0, 0.0, 0.0, 0.0, 0.0, 0.0, 1.708991254116059E9, 0.0, 2024-02-26 18:47:34.116
170.0, 187500.0, 187500.0, 29128.48044973379, -183321.49783629156, 187500.0, -183290.78653940995, -184760.14551641291, -183587.7741679876, 0.068, -0.006, 0.98, 192.0, 0.0, 0.0, 0.0, 0.0, 0.0, 0.0, 0.0, 0.0, 0.0, 1.708991254120065E9, 0.0, 2024-02-26 18:47:34.120
171.0, 187500.0, 187500.0, 28219.233837036354, -183009.6462976511, 187500.0, -183226.27940491194, -184574.9166101118, -183400.80182561898, 0.068, -0.006, 0.98, 192.0, 0.0, 0.0, 0.0, 0.0, 0.0, 0.0, 0.0, 0.0, 0.0, 1.70899125412407E9, 0.0, 2024-02-26 18:47:34.124
172.0, 187500.0, 187500.0, 28343.42012923004, -183179.49720376698, 187500.0, -183225.60885257827, -184560.49973493812, -183385.46852892265, 0.068, -0.006, 0.98, 192.0, 0.0, 0.0, 0.0, 0.0, 0.0, 0.0, 0.0, 0.0, 0.0, 1.708991254128062E9, 0.0, 2024-02-26 18:47:34.128
173.0, 187500.0, 187500.0, 29459.755654305896, -183716.43080907236, 187500.0, -183323.8671212038, -184707.41775124287, -183531.5595306825, 0.068, -0.006, 0.98, 192.0, 0.0, 0.0, 0.0, 0.0, 0.0, 0.0, 0.0, 0.0, 0.0, 1.70899125413115E9, 0.0, 2024-02-26 18:47:34.131
174.0, 187500.0, 187500.0, 29623.124554529735, -183874.56940109367, 187500.0, -183298.65435345823, -184659.51796287514, -183482.49745160312, 0.068, -0.006, 0.98, 192.0, 0.0, 0.0, 0.0, 0.0, 0.0, 0.0, 0.0, 0.0, 0.0, 1.708991254136084E9, 0.0, 2024-02-26 18:47:34.136
175.0, 187500.0, 187500.0, 29043.834393481542, -183667.81576488208, 187500.0, -183215.43880885112, -184449.97035860663, -183272.4134054677, 0.068, -0.006, 0.98, 192.0, 0.0, 0.0, 0.0, 0.0, 0.0, 0.0, 0.0, 0.0, 0.0, 1.708991254140069E9, 0.0, 2024-02-26 18:47:34.140
176.0, 187500.0, 187500.0, 29321.823039272196, -183603.39803736188, 187500.0, -183212.86835823875, -184393.04046547896, -183214.7012012841, 0.066, -0.002, 0.984, 192.0, 2.0, 16.0, 255.0, 240.0, 30.0, 192.0, 0.0, 0.0, 0.0, 1.708991254144065E9, 0.0, 2024-02-26 18:47:34.144
177.0, 187500.0, 187500.0, 30433.21882882343, -183695.7107419623, 187500.0, -183267.13839377623, -184497.13253940732, -183317.3627635673, 0.066, -0.002, 0.984, 192.0, 0.0, 0.0, 0.0, 0.0, 0.0, 0.0, 0.0, 0.0, 0.0, 1.708991254148063E9, 0.0, 2024-02-26 18:47:34.148
178.0, 187500.0, 187500.0, 30729.245332389517, -183672.73314866223, 187500.0, -183257.63890238272, -184481.9333531777, -183301.56008023742, 0.066, -0.002, 0.984, 192.0, 0.0, 0.0, 0.0, 0.0, 0.0, 0.0, 0.0, 0.0, 0.0, 1.708991254153076E9, 0.0, 2024-02-26 18:47:34.153
179.0, 187500.0, 187500.0, 29734.21272447261, -183545.3729087559, 187500.0, -183219.70799204207, -184359.33403484037, -183218.23277690803, 0.066, -0.002, 0.984, 192.0, 0.0, 0.0, 0.0, 0.0, 0.0, 0.0, 0.0, 0.0, 0.0, 1.708991254156069E9, 0.0, 2024-02-26 18:47:34.156
180.0, 187500.0, 187500.0, 29502.1122100487, -183477.3118468895, 187500.0, -183210.0967419263, -184298.67140038864, -183223.95482348857, 0.066, -0.002, 0.984, 192.0, 0.0, 0.0, 0.0, 0.0, 0.0, 0.0, 0.0, 0.0, 0.0, 1.708991254159085E9, 0.0, 2024-02-26 18:47:34.159
181.0, 187500.0, 187500.0, 30356.82056627519, -183562.15906884184, 187500.0, -183258.01888203848, -184394.18040444618, -183302.83412967136, 0.066, -0.002, 0.984, 192.0, 0.0, 0.0, 0.0, 0.0, 0.0, 0.0, 0.0, 0.0, 0.0, 1.708991254163126E9, 0.0, 2024-02-26 18:47:34.163
182.0, 187500.0, 187500.0, 31014.14066721686, -183621.45824688175, 187500.0, -183313.18298735417, -184463.20259132417, -183375.36554042884, 0.066, -0.002, 0.984, 192.0, 0.0, 0.0, 0.0, 0.0, 0.0, 0.0, 0.0, 0.0, 0.0, 1.708991254168123E9, 0.0, 2024-02-26 18:47:34.168
183.0, 187500.0, 187500.0, 30077.04378092811, -183415.21870079264, 187500.0, -183205.78285524642, -184260.51697260345, -183262.22100999608, 0.066, -0.002, 0.984, 192.0, 0.0, 0.0, 0.0, 0.0, 0.0, 0.0, 0.0, 0.0, 0.0, 1.708991254174119E9, 0.0, 2024-02-26 18:47:34.174
184.0, 187500.0, 187500.0, 29727.238980202554, -183299.57077498088, 187500.0, -183184.12401486922, -184149.87583754968, -183220.26678565345, 0.066, -0.002, 0.984, 192.0, 0.0, 0.0, 0.0, 0.0, 0.0, 0.0, 0.0, 0.0, 0.0, 1.708991254177105E9, 0.0, 2024-02-26 18:47:34.177
185.0, 187500.0, 187500.0, 30420.36657576163, -183373.15271772776, 187500.0, -183234.3483846603, -184232.6443472677, -183280.52708870496, 0.066, -0.002, 0.984, 192.0, 0.0, 0.0, 0.0, 0.0, 0.0, 0.0, 0.0, 0.0, 0.0, 1.708991254180108E9, 0.0, 2024-02-26 18:47:34.180
186.0, 187500.0, 187500.0, 31336.408118773477, -183482.54215509203, 187500.0, -183327.018717172, -184353.1649533707, -183398.20902326217, 0.068, -0.004, 0.988, 192.0, 2.0, 32.0, 255.0, 224.0, 30.0, 224.0, 0.0, 0.0, 0.0, 1.70899125418416E9, 0.0, 2024-02-26 18:47:34.184
187.0, 187500.0, 187500.0, 30503.626823857645, -183312.24421408706, 187500.0, -183240.80803880788, -184187.62793393468, -183255.87311457077, 0.068, -0.004, 0.988, 192.0, 0.0, 0.0, 0.0, 0.0, 0.0, 0.0, 0.0, 0.0, 0.0, 1.708991254187116E9, 0.0, 2024-02-26 18:47:34.187
188.0, 187500.0, 187500.0, 29860.43302541173, -183119.48276990448, 187500.0, -183195.9480876861, -184074.0363686128, -183195.81397721934, 0.068, -0.004, 0.988, 192.0, 0.0, 0.0, 0.0, 0.0, 0.0, 0.0, 0.0, 0.0, 0.0, 1.708991254192109E9, 0.0, 2024-02-26 18:47:34.192
189.0, 187500.0, 187500.0, 30183.795712446656, -183071.98531293694, 187500.0, -183198.3397243428, -184116.14705516663, -183225.89942525618, 0.068, -0.004, 0.988, 192.0, 0.0, 0.0, 0.0, 0.0, 0.0, 0.0, 0.0, 0.0, 0.0, 1.708991254196104E9, 0.0, 2024-02-26 18:47:34.196
190.0, 187500.0, 187500.0, 31154.755491585198, -183496.98138201016, 187500.0, -183308.80204544094, -184251.95625447706, -183359.65226407675, 0.068, -0.004, 0.988, 192.0, 0.0, 0.0, 0.0, 0.0, 0.0, 0.0, 0.0, 0.0, 0.0, 1.708991254200107E9, 0.0, 2024-02-26 18:47:34.200
191.0, 187500.0, 187500.0, 30620.10176421425, -183698.43765478584, 187500.0, -183224.33480314433, -184105.462921317, -183266.6690071427, 0.068, -0.004, 0.988, 192.0, 0.0, 0.0, 0.0, 0.0, 0.0, 0.0, 0.0, 0.0, 0.0, 1.708991254204102E9, 0.0, 2024-02-26 18:47:34.204
192.0, 187500.0, 187500.0, 30103.82117078557, -183576.19596435977, 187500.0, -183181.46415727906, -183943.43512576047, -183207.92862271413, 0.068, -0.004, 0.988, 192.0, 0.0, 0.0, 0.0, 0.0, 0.0, 0.0, 0.0, 0.0, 0.0, 1.708991254207159E9, 0.0, 2024-02-26 18:47:34.207
193.0, 187500.0, 187500.0, 30598.77820000389, -183566.29414156606, 187500.0, -183188.34849457128, -183942.58575947117, -183200.1502156437, 0.068, -0.004, 0.988, 192.0, 0.0, 0.0, 0.0, 0.0, 0.0, 0.0, 0.0, 0.0, 0.0, 1.708991254211163E9, 0.0, 2024-02-26 18:47:34.211
194.0, 187500.0, 187500.0, 31815.54011291744, -183690.03339887064, 187500.0, -183278.85070787082, -184077.7914616813, -183326.75049623853, 0.068, -0.004, 0.988, 192.0, 0.0, 0.0, 0.0, 0.0, 0.0, 0.0, 0.0, 0.0, 0.0, 1.708991254215156E9, 0.0, 2024-02-26 18:47:34.215
195.0, 187500.0, 187500.0, 31524.922731509538, -183612.91988049983, 187500.0, -183237.25411143948, -184007.96461200292, -183274.8050421244, 0.062, -0.006, 0.986, 192.0, 1.0, 240.0, 255.0, 208.0, 30.0, 208.0, 0.0, 0.0, 0.0, 1.708991254220132E9, 0.0, 2024-02-26 18:47:34.220
196.0, 187500.0, 187500.0, 30579.332182327773, -183436.85518942538, 187500.0, -183180.1901078451, -183836.10204888607, -183197.80328247588, 0.062, -0.006, 0.986, 192.0, 0.0, 0.0, 0.0, 0.0, 0.0, 0.0, 0.0, 0.0, 0.0, 1.708991254224139E9, 0.0, 2024-02-26 18:47:34.224
197.0, 187500.0, 187500.0, 30586.37298183119, -183416.91743337124, 187500.0, -183165.37090127124, -183825.08263886962, -183191.70125623958, 0.062, -0.006, 0.986, 192.0, 0.0, 0.0, 0.0, 0.0, 0.0, 0.0, 0.0, 0.0, 0.0, 1.708991254228132E9, 0.0, 2024-02-26 18:47:34.228
198.0, 187500.0, 187500.0, 31591.329764286253, -183550.69262393625, 187500.0, -183266.84782109832, -183970.88306795157, -183326.0128886715, 0.062, -0.006, 0.986, 192.0, 0.0, 0.0, 0.0, 0.0, 0.0, 0.0, 0.0, 0.0, 0.0, 1.708991254232135E9, 0.0, 2024-02-26 18:47:34.232
199.0, 187500.0, 187500.0, 31603.44440978103, -183527.4691614472, 187500.0, -183261.59516115132, -183955.46036427742, -183317.45217054515, 0.062, -0.006, 0.986, 192.0, 0.0, 0.0, 0.0, 0.0, 0.0, 0.0, 0.0, 0.0, 0.0, 1.708991254235169E9, 0.0, 2024-02-26 18:47:34.235
200.0, 187500.0, 187500.0, 30587.04353416485, -183338.6863277777, 187500.0, -183189.10845388277, -183770.25380972074, -183206.67692502463, 0.062, -0.006, 0.986, 192.0, 0.0, 0.0, 0.0, 0.0, 0.0, 0.0, 0.0, 0.0, 0.0, 1.708991254239166E9, 0.0, 2024-02-26 18:47:34.239
201.0, 187500.0, 187500.0, 30403.334546486683, -183315.23934784406, 187500.0, -183178.4243200331, -183753.51235312372, -183217.40576236317, 0.062, -0.006, 0.986, 192.0, 0.0, 0.0, 0.0, 0.0, 0.0, 0.0, 0.0, 0.0, 0.0, 1.708991254243177E9, 0.0, 2024-02-26 18:47:34.243
202.0, 187500.0, 187500.0, 31125.83233426003, -183438.50921851507, 187500.0, -183266.5125449315, -183887.17578496644, -183336.33939460988, 0.062, -0.006, 0.986, 192.0, 0.0, 0.0, 0.0, 0.0, 0.0, 0.0, 0.0, 0.0, 0.0, 1.708991254247157E9, 0.0, 2024-02-26 18:47:34.247
203.0, 187500.0, 187500.0, 31259.965152736328, -183501.63054485686, 187500.0, -183322.54836828096, -183959.5730852572, -183408.8484536229, 0.062, -0.006, 0.986, 192.0, 0.0, 0.0, 0.0, 0.0, 0.0, 0.0, 0.0, 0.0, 0.0, 1.70899125425219E9, 0.0, 2024-02-26 18:47:34.252
204.0, 187500.0, 187500.0, 30028.451088482274, -183299.03433311396, 187500.0, -183188.32614282682, -183761.00018751624, -183239.06460274037, 0.062, -0.006, 0.986, 192.0, 0.0, 0.0, 0.0, 0.0, 0.0, 0.0, 0.0, 0.0, 0.0, 1.708991254256204E9, 0.0, 2024-02-26 18:47:34.256
205.0, 187500.0, 187500.0, 29639.709548915573, -183241.43388765265, 187500.0, -183143.86852310522, -183710.97698342527, -183199.7478842435, 0.064, -0.002, 0.982, 192.0, 2.0, 0.0, 255.0, 240.0, 30.0, 176.0, 0.0, 0.0, 0.0, 1.708991254260215E9, 0.0, 2024-02-26 18:47:34.260
206.0, 187500.0, 187500.0, 30281.42813222744, -183348.02935696, 187500.0, -183221.18320717613, -183828.05542088216, -183311.2160338421, 0.064, -0.002, 0.982, 192.0, 0.0, 0.0, 0.0, 0.0, 0.0, 0.0, 0.0, 0.0, 0.0, 1.708991254263208E9, 0.0, 2024-02-26 18:47:34.263
207.0, 187500.0, 187500.0, 30782.24131849305, -183437.81631443696, 187500.0, -183302.14122559325, -183927.8559598751, -183410.07779956792, 0.064, -0.002, 0.982, 192.0, 0.0, 0.0, 0.0, 0.0, 0.0, 0.0, 0.0, 0.0, 0.0, 1.708991254267206E9, 0.0, 2024-02-26 18:47:34.267
208.0, 187500.0, 187500.0, 29665.704627717096, -183279.18598403764, 187500.0, -183201.245451122, -183773.40540568894, -183253.92851280316, 0.064, -0.002, 0.982, 192.0, 0.0, 0.0, 0.0, 0.0, 0.0, 0.0, 0.0, 0.0, 0.0, 1.70899125427119E9, 0.0, 2024-02-26 18:47:34.271
209.0, 187500.0, 187500.0, 29158.320028581624, -183195.1434248857, 187500.0, -183158.62067444573, -183695.9566111513, -183175.1386135982, 0.064, -0.002, 0.982, 192.0, 0.0, 0.0, 0.0, 0.0, 0.0, 0.0, 0.0, 0.0, 0.0, 1.708991254276207E9, 0.0, 2024-02-26 18:47:34.276
210.0, 187500.0, 187500.0, 29808.264053853043, -183255.82841108186, 187500.0, -183194.00348591848, -183765.8281643186, -183244.87605629876, 0.064, -0.002, 0.982, 192.0, 0.0, 0.0, 0.0, 0.0, 0.0, 0.0, 0.0, 0.0, 0.0, 1.708991254280212E9, 0.0, 2024-02-26 18:47:34.280
211.0, 187500.0, 187500.0, 30864.696903788677, -183350.68921455016, 187500.0, -183282.73991140604, -183874.92702900496, -183353.95256924065, 0.064, -0.002, 0.982, 192.0, 0.0, 0.0, 0.0, 0.0, 0.0, 0.0, 0.0, 0.0, 0.0, 1.708991254284205E9, 0.0, 2024-02-26 18:47:34.284
212.0, 187500.0, 187500.0, 30238.311617173153, -183067.98435067944, 187500.0, -183194.8975556967, -183713.88271020446, -183242.1044399863, 0.064, -0.002, 0.982, 192.0, 0.0, 0.0, 0.0, 0.0, 0.0, 0.0, 0.0, 0.0, 0.0, 1.708991254288252E9, 0.0, 2024-02-26 18:47:34.288
213.0, 187500.0, 187500.0, 29744.718044366604, -182937.76308748283, 187500.0, -183163.51570648144, -183578.92287718333, -183180.5253840119, 0.064, -0.002, 0.982, 192.0, 0.0, 0.0, 0.0, 0.0, 0.0, 0.0, 0.0, 0.0, 0.0, 1.708991254291248E9, 0.0, 2024-02-26 18:47:34.291
214.0, 187500.0, 187500.0, 30164.327343026085, -183251.17924823516, 187500.0, -183173.70810195306, -183614.90918575635, -183198.5408900429, 0.064, -0.002, 0.982, 192.0, 0.0, 0.0, 0.0, 0.0, 0.0, 0.0, 0.0, 0.0, 0.0, 1.708991254295244E9, 0.0, 2024-02-26 18:47:34.295
215.0, 187500.0, 187500.0, 31208.399678277932, -183790.884469853, 187500.0, -183278.44837647062, -183756.5298386252, -183338.06047893292, 0.066, -0.004, 0.98, 192.0, 2.0, 16.0, 255.0, 224.0, 30.0, 160.0, 0.0, 0.0, 0.0, 1.708991254299239E9, 0.0, 2024-02-26 18:47:34.299
216.0, 187500.0, 187500.0, 30733.335701624837, -183807.15653981647, 187500.0, -183218.36688737475, -183650.31434897357, -183257.7953645939, 0.066, -0.004, 0.98, 192.0, 0.0, 0.0, 0.0, 0.0, 0.0, 0.0, 0.0, 0.0, 0.0, 1.708991254303239E9, 0.0, 2024-02-26 18:47:34.303
217.0, 187500.0, 187500.0, 30062.8951266879, -183645.30755821557, 187500.0, -183172.478756008, -183493.38275115285, -183180.86066017876, 0.066, -0.004, 0.98, 192.0, 0.0, 0.0, 0.0, 0.0, 0.0, 0.0, 0.0, 0.0, 0.0, 1.708991254308323E9, 0.0, 2024-02-26 18:47:34.308
218.0, 187500.0, 187500.0, 30301.23177781484, -183648.9955960507, 187500.0, -183168.45544200606, -183505.25152745863, -183187.2309073485, 0.066, -0.004, 0.98, 192.0, 0.0, 0.0, 0.0, 0.0, 0.0, 0.0, 0.0, 0.0, 0.0, 1.708991254312241E9, 0.0, 2024-02-26 18:47:34.312
219.0, 187500.0, 187500.0, 31291.324650207123, -183800.6298304355, 187500.0, -183290.5630219654, -183668.5533724491, -183344.69894703614, 0.066, -0.004, 0.98, 192.0, 0.0, 0.0, 0.0, 0.0, 0.0, 0.0, 0.0, 0.0, 0.0, 1.708991254315235E9, 0.0, 2024-02-26 18:47:34.315
220.0, 187500.0, 187500.0, 30924.532523695532, -183763.50358289524, 187500.0, -183258.5553239054, -183639.51845640165, -183314.38998155476, 0.066, -0.004, 0.98, 192.0, 0.0, 0.0, 0.0, 0.0, 0.0, 0.0, 0.0, 0.0, 0.0, 1.708991254319236E9, 0.0, 2024-02-26 18:47:34.319
221.0, 187500.0, 187500.0, 29934.931389681267, -183603.1298164284, 187500.0, -183156.29609302236, -183483.92796324825, -183162.80045065886, 0.066, -0.004, 0.98, 192.0, 0.0, 0.0, 0.0, 0.0, 0.0, 0.0, 0.0, 0.0, 0.0, 1.708991254323232E9, 0.0, 2024-02-26 18:47:34.323
222.0, 187500.0, 187500.0, 29949.504727066127, -183551.3855280144, 187500.0, -183174.49041300899, -183439.78326794904, -183190.740131228, 0.066, -0.004, 0.98, 192.0, 0.0, 0.0, 0.0, 0.0, 0.0, 0.0, 0.0, 0.0, 0.0, 1.708991254327391E9, 0.0, 2024-02-26 18:47:34.327
223.0, 187500.0, 187500.0, 31009.826780536987, -183677.71758767578, 187500.0, -183302.49885350454, -183577.87234519393, -183350.89038025026, 0.066, -0.004, 0.98, 192.0, 0.0, 0.0, 0.0, 0.0, 0.0, 0.0, 0.0, 0.0, 0.0, 1.708991254331301E9, 0.0, 2024-02-26 18:47:34.331
224.0, 187500.0, 187500.0, 31146.574753114553, -183739.85543726152, 187500.0, -183342.64258654625, -183649.66614838436, -183412.46943622464, 0.066, -0.004, 0.98, 192.0, 0.0, 0.0, 0.0, 0.0, 0.0, 0.0, 0.0, 0.0, 0.0, 1.708991254336296E9, 0.0, 2024-02-26 18:47:34.336
225.0, 187500.0, 187500.0, 30084.218690898266, -183496.9143267768, 187500.0, -183173.41752927515, -183409.295488512, -183233.25314918198, 0.066, -0.004, 0.982, 192.0, 2.0, 16.0, 255.0, 224.0, 30.0, 176.0, 0.0, 0.0, 0.0, 1.708991254340283E9, 0.0, 2024-02-26 18:47:34.340
226.0, 187500.0, 187500.0, 29933.567933269496, -183409.9436891012, 187500.0, -183127.70821186402, -183328.8739119618, -183183.11818636875, 0.066, -0.004, 0.982, 192.0, 0.0, 0.0, 0.0, 0.0, 0.0, 0.0, 0.0, 0.0, 0.0, 1.708991254343329E9, 0.0, 2024-02-26 18:47:34.343
227.0, 187500.0, 187500.0, 30852.470499571624, -183520.9201003218, 187500.0, -183216.37758211824, -183450.91443668777, -183289.9148213762, 0.066, -0.004, 0.982, 192.0, 0.0, 0.0, 0.0, 0.0, 0.0, 0.0, 0.0, 0.0, 0.0, 1.70899125434731E9, 0.0, 2024-02-26 18:47:34.347
228.0, 187500.0, 187500.0, 31362.023217919257, -183564.28248456508, 187500.0, -183258.5553239054, -183503.82101581348, -183342.7319935241, 0.066, -0.004, 0.982, 192.0, 0.0, 0.0, 0.0, 0.0, 0.0, 0.0, 0.0, 0.0, 0.0, 1.708991254351289E9, 0.0, 2024-02-26 18:47:34.351
229.0, 187500.0, 187500.0, 30447.948628419475, -183374.35971192835, 187500.0, -183172.478756008, -183317.83215020088, -183197.66917200913, 0.066, -0.004, 0.982, 192.0, 0.0, 0.0, 0.0, 0.0, 0.0, 0.0, 0.0, 0.0, 0.0, 1.708991254355289E9, 0.0, 2024-02-26 18:47:34.355
230.0, 187500.0, 187500.0, 30208.337927858585, -183292.59703071084, 187500.0, -183142.90739809364, -183242.28325394195, -183148.80825862984, 0.066, -0.004, 0.982, 192.0, 0.0, 0.0, 0.0, 0.0, 0.0, 0.0, 0.0, 0.0, 0.0, 1.708991254359318E9, 0.0, 2024-02-26 18:47:34.359
231.0, 187500.0, 187500.0, 30947.912448395786, -183383.278057966, 187500.0, -183195.0316661634, -183344.2742638915, -183238.41640215117, 0.066, -0.004, 0.982, 192.0, 0.0, 0.0, 0.0, 0.0, 0.0, 0.0, 0.0, 0.0, 0.0, 1.708991254363323E9, 0.0, 2024-02-26 18:47:34.363
232.0, 187500.0, 187500.0, 31629.79711649384, -183474.13789917683, 187500.0, -183274.04508281293, -183445.03592789604, -183338.75338301103, 0.066, -0.004, 0.982, 192.0, 0.0, 0.0, 0.0, 0.0, 0.0, 0.0, 0.0, 0.0, 0.0, 1.708991254368314E9, 0.0, 2024-02-26 18:47:34.368
233.0, 187500.0, 187500.0, 30642.475860414015, -183316.33458332237, 187500.0, -183176.05503512087, -183291.09946383233, -183203.86060522325, 0.066, -0.004, 0.982, 192.0, 0.0, 0.0, 0.0, 0.0, 0.0, 0.0, 0.0, 0.0, 0.0, 1.708991254371335E9, 0.0, 2024-02-26 18:47:34.371
234.0, 187500.0, 187500.0, 30063.453920299286, -183220.89263449822, 187500.0, -183138.66056664713, -183203.16770114514, -183139.42052595862, 0.066, -0.004, 0.982, 192.0, 0.0, 0.0, 0.0, 0.0, 0.0, 0.0, 0.0, 0.0, 0.0, 1.708991254375333E9, 0.0, 2024-02-26 18:47:34.375
235.0, 187500.0, 187500.0, 30453.111881388653, -183291.05476034342, 187500.0, -183172.81403217485, -183284.12571956226, -183211.16962566014, 0.062, -0.004, 0.984, 192.0, 1.0, 240.0, 255.0, 224.0, 30.0, 192.0, 0.0, 0.0, 0.0, 1.708991254379331E9, 0.0, 2024-02-26 18:47:34.379
236.0, 187500.0, 187500.0, 31232.40545182293, -183431.91545390076, 187500.0, -183298.98962962505, -183435.73760220263, -183361.32864491091, 0.062, -0.004, 0.984, 192.0, 0.0, 0.0, 0.0, 0.0, 0.0, 0.0, 0.0, 0.0, 0.0, 1.708991254383323E9, 0.0, 2024-02-26 18:47:34.383
237.0, 187500.0, 187500.0, 30366.364761157605, -183305.89631866175, 187500.0, -183203.9053087122, -183313.83118794337, -183242.08208824185, 0.062, -0.004, 0.984, 192.0, 0.0, 0.0, 0.0, 0.0, 0.0, 0.0, 0.0, 0.0, 0.0, 1.708991254387325E9, 0.0, 2024-02-26 18:47:34.387
238.0, 187500.0, 187500.0, 29628.243104010002, -183176.6808839656, 187500.0, -183147.82478187382, -183189.1978608606, -183137.54297942435, 0.062, -0.004, 0.984, 192.0, 0.0, 0.0, 0.0, 0.0, 0.0, 0.0, 0.0, 0.0, 0.0, 1.708991254391332E9, 0.0, 2024-02-26 18:47:34.391
239.0, 187500.0, 187500.0, 29870.24544122761, -183211.72841927153, 187500.0, -183154.84322963277, -183233.2978526709, -183180.1901078451, 0.062, -0.004, 0.984, 192.0, 0.0, 0.0, 0.0, 0.0, 0.0, 0.0, 0.0, 0.0, 0.0, 1.708991254396324E9, 0.0, 2024-02-26 18:47:34.396
240.0, 187500.0, 187500.0, 30804.458952481626, -183360.14400245476, 187500.0, -183286.49500447453, -183393.22458424862, -183337.9710719551, 0.062, -0.004, 0.984, 192.0, 0.0, 0.0, 0.0, 0.0, 0.0, 0.0, 0.0, 0.0, 0.0, 1.70899125439935E9, 0.0, 2024-02-26 18:47:34.399
241.0, 187500.0, 187500.0, 30277.42716996994, -183244.6525388542, 187500.0, -183214.65649779516, -183309.1596733522, -183258.04123378292, 0.062, -0.004, 0.984, 192.0, 0.0, 0.0, 0.0, 0.0, 0.0, 0.0, 0.0, 0.0, 0.0, 1.708991254403333E9, 0.0, 2024-02-26 18:47:34.403
242.0, 187500.0, 187500.0, 29564.630039290198, -182955.71153828045, 187500.0, -183157.34662501176, -183162.01813960294, -183151.40106098665, 0.062, -0.004, 0.984, 192.0, 0.0, 0.0, 0.0, 0.0, 0.0, 0.0, 0.0, 0.0, 0.0, 1.708991254407371E9, 0.0, 2024-02-26 18:47:34.407
243.0, 187500.0, 187500.0, 29883.924708834256, -183083.29529563134, 187500.0, -183129.4292961871, -183156.25138953346, -183146.0813458063, 0.062, -0.004, 0.984, 192.0, 0.0, 0.0, 0.0, 0.0, 0.0, 0.0, 0.0, 0.0, 0.0, 1.708991254411382E9, 0.0, 2024-02-26 18:47:34.411
244.0, 187500.0, 187500.0, 31016.934635273774, -183599.4864820822, 187500.0, -183222.97134673255, -183282.78461489495, -183268.8147746104, 0.062, -0.004, 0.984, 192.0, 0.0, 0.0, 0.0, 0.0, 0.0, 0.0, 0.0, 0.0, 0.0, 1.708991254415362E9, 0.0, 2024-02-26 18:47:34.415
245.0, 187500.0, 187500.0, 30796.05469656643, -183755.85928629152, 187500.0, -183196.6856952531, -183269.59708566632, -183237.79055330643, 0.068, -0.004, 0.986, 192.0, 2.0, 32.0, 255.0, 224.0, 30.0, 208.0, 0.0, 0.0, 0.0, 1.708991254419358E9, 0.0, 2024-02-26 18:47:34.419
246.0, 187500.0, 187500.0, 29783.677134952206, -183557.5322577396, 187500.0, -183121.3156129498, -183216.37758211824, -183158.66537793464, 0.068, -0.004, 0.986, 192.0, 0.0, 0.0, 0.0, 0.0, 0.0, 0.0, 0.0, 0.0, 0.0, 1.708991254424366E9, 0.0, 2024-02-26 18:47:34.424
247.0, 187500.0, 187500.0, 29727.574256369386, -183501.27291694557, 187500.0, -183129.5187031649, -183184.86162243626, -183156.13963081117, 0.068, -0.004, 0.986, 192.0, 0.0, 0.0, 0.0, 0.0, 0.0, 0.0, 0.0, 0.0, 0.0, 1.708991254427369E9, 0.0, 2024-02-26 18:47:34.427
248.0, 187500.0, 187500.0, 30717.644777017213, -183650.20259025128, 187500.0, -183241.992681264, -183325.45409506012, -183299.83899591435, 0.068, -0.004, 0.986, 192.0, 0.0, 0.0, 0.0, 0.0, 0.0, 0.0, 0.0, 0.0, 0.0, 1.70899125443136E9, 0.0, 2024-02-26 18:47:34.431
249.0, 187500.0, 187500.0, 30921.671500405253, -183695.0625413731, 187500.0, -183274.9168008467, -183375.96903752914, -183349.5269238385, 0.068, -0.004, 0.986, 192.0, 0.0, 0.0, 0.0, 0.0, 0.0, 0.0, 0.0, 0.0, 0.0, 1.708991254435359E9, 0.0, 2024-02-26 18:47:34.435
250.0, 187500.0, 187500.0, 29954.2209451462, -183500.28944018955, 187500.0, -183152.25042727595, -183192.72943648451, -183172.14347984118, 0.068, -0.004, 0.986, 192.0, 0.0, 0.0, 0.0, 0.0, 0.0, 0.0, 0.0, 0.0, 0.0, 1.708991254439374E9, 0.0, 2024-02-26 18:47:34.439
251.0, 187500.0, 187500.0, 29833.745042532093, -183454.96010243418, 187500.0, -183116.39822916966, -183161.14642156917, -183145.70136615055, 0.068, -0.004, 0.986, 192.0, 0.0, 0.0, 0.0, 0.0, 0.0, 0.0, 0.0, 0.0, 0.0, 1.708991254443367E9, 0.0, 2024-02-26 18:47:34.443
252.0, 187500.0, 187500.0, 30722.09277416382, -183578.00645566065, 187500.0, -183210.32025937084, -183290.94300162114, -183273.0616060569, 0.068, -0.004, 0.986, 192.0, 0.0, 0.0, 0.0, 0.0, 0.0, 0.0, 0.0, 0.0, 0.0, 1.708991254447354E9, 0.0, 2024-02-26 18:47:34.447
253.0, 187500.0, 187500.0, 31234.439460568366, -183635.91982554435, 187500.0, -183262.86921058528, -183359.00406348755, -183340.40741210073, 0.068, -0.004, 0.986, 192.0, 0.0, 0.0, 0.0, 0.0, 0.0, 0.0, 0.0, 0.0, 0.0, 1.708991254452412E9, 0.0, 2024-02-26 18:47:34.452
254.0, 187500.0, 187500.0, 30225.28055015571, -183453.46253555568, 187500.0, -183156.49725872246, -183197.95974468708, -183176.36795954325, 0.068, -0.004, 0.986, 192.0, 0.0, 0.0, 0.0, 0.0, 0.0, 0.0, 0.0, 0.0, 0.0, 1.708991254455397E9, 0.0, 2024-02-26 18:47:34.455
255.0, 187500.0, 187500.0, 29784.392390774774, -183368.95058977016, 187500.0, -183132.29031947738, -183141.70040389305, -183125.45068567403, 0.068, -0.002, 0.98, 192.0, 2.0, 32.0, 255.0, 240.0, 30.0, 160.0, 0.0, 0.0, 0.0, 1.708991254459402E9, 0.0, 2024-02-26 18:47:34.459
0.0, 187500.0, 187500.0, 30252.929658046924, -183452.5908175219, 187500.0, -183178.96076190006, -183225.22887292254, -183210.1414454152, 0.068, -0.002, 0.98, 192.0, 0.0, 0.0, 0.0, 0.0, 0.0, 0.0, 0.0, 0.0, 0.0, 1.708991254463418E9, 0.0, 2024-02-26 18:47:34.463
1.0, 187500.0, 187500.0, 30781.503710926023, -183565.46712702123, 187500.0, -183277.68841715914, -183347.2246941596, -183330.9749759406, 0.068, -0.002, 0.98, 192.0, 0.0, 0.0, 0.0, 0.0, 0.0, 0.0, 0.0, 0.0, 0.0, 1.708991254467404E9, 0.0, 2024-02-26 18:47:34.467
2.0, 187500.0, 187500.0, 29734.88327680627, -183416.22452929313, 187500.0, -183174.9374478981, -183217.85279725227, -183198.56324178734, 0.068, -0.002, 0.98, 192.0, 0.0, 0.0, 0.0, 0.0, 0.0, 0.0, 0.0, 0.0, 0.0, 1.708991254471406E9, 0.0, 2024-02-26 18:47:34.471
3.0, 187500.0, 187500.0, 29222.4471834239, -183301.53772849296, 187500.0, -183131.3291944658, -183148.71885165203, -183128.8705025757, 0.068, -0.002, 0.98, 192.0, 0.0, 0.0, 0.0, 0.0, 0.0, 0.0, 0.0, 0.0, 0.0, 1.708991254475402E9, 0.0, 2024-02-26 18:47:34.475
4.0, 187500.0, 187500.0, 29807.74996373057, -183349.0798889494, 187500.0, -183143.24267426046, -183193.243526607, -183177.95493339957, 0.068, -0.002, 0.98, 192.0, 0.0, 0.0, 0.0, 0.0, 0.0, 0.0, 0.0, 0.0, 0.0, 1.708991254479419E9, 0.0, 2024-02-26 18:47:34.479
5.0, 187500.0, 187500.0, 30834.72321447411, -183476.8648120004, 187500.0, -183255.4037279372, -183329.8126852289, -183314.5687955104, 0.068, -0.002, 0.98, 192.0, 0.0, 0.0, 0.0, 0.0, 0.0, 0.0, 0.0, 0.0, 0.0, 1.708991254482432E9, 0.0, 2024-02-26 18:47:34.482
6.0, 187500.0, 187500.0, 30095.640432314925, -183362.55799085594, 187500.0, -183181.8888404237, -183225.16181768916, -183208.46506458105, 0.068, -0.002, 0.98, 192.0, 0.0, 0.0, 0.0, 0.0, 0.0, 0.0, 0.0, 0.0, 0.0, 1.708991254487449E9, 0.0, 2024-02-26 18:47:34.487
7.0, 187500.0, 187500.0, 29260.512204231287, -183248.16176273368, 187500.0, -183137.85590384674, -183147.80243012935, -183127.0823630193, 0.068, -0.002, 0.98, 192.0, 0.0, 0.0, 0.0, 0.0, 0.0, 0.0, 0.0, 0.0, 0.0, 1.708991254491458E9, 0.0, 2024-02-26 18:47:34.491
8.0, 187500.0, 187500.0, 29384.474978980423, -183274.29095200193, 187500.0, -183136.984185813, -183177.2843810659, -183158.91124712364, 0.068, -0.002, 0.98, 192.0, 0.0, 0.0, 0.0, 0.0, 0.0, 0.0, 0.0, 0.0, 0.0, 1.708991254495461E9, 0.0, 2024-02-26 18:47:34.495
9.0, 187500.0, 187500.0, 30338.559191055203, -183371.56574387144, 187500.0, -183216.6010995628, -183281.89054511674, -183263.83033559684, 0.062, -0.004, 0.982, 192.0, 1.0, 240.0, 255.0, 224.0, 30.0, 176.0, 0.0, 0.0, 0.0, 1.708991254501445E9, 0.0, 2024-02-26 18:47:34.501
10.0, 187500.0, 187500.0, 29987.63680310688, -183301.58243198186, 187500.0, -183183.96755265805, -183237.4999806285, -183216.06465769585, 0.062, -0.004, 0.982, 192.0, 0.0, 0.0, 0.0, 0.0, 0.0, 0.0, 0.0, 0.0, 0.0, 1.708991254504513E9, 0.0, 2024-02-26 18:47:34.504
11.0, 187500.0, 187500.0, 29255.393654751024, -183042.0563271113, 187500.0, -183150.05995631934, -183190.85188995028, -183154.23973253247, 0.062, -0.004, 0.982, 192.0, 0.0, 0.0, 0.0, 0.0, 0.0, 0.0, 0.0, 0.0, 0.0, 1.70899125450746E9, 0.0, 2024-02-26 18:47:34.507
12.0, 187500.0, 187500.0, 29524.776878926383, -182989.41796891904, 187500.0, -183143.64500566066, -183172.56816298584, -183157.10075582276, 0.062, -0.004, 0.982, 192.0, 0.0, 0.0, 0.0, 0.0, 0.0, 0.0, 0.0, 0.0, 0.0, 1.70899125451147E9, 0.0, 2024-02-26 18:47:34.511
13.0, 187500.0, 187500.0, 30772.317143954893, -183512.42643742877, 187500.0, -183266.62430365378, -183330.14796139573, -183317.2733565895, 0.062, -0.004, 0.982, 192.0, 0.0, 0.0, 0.0, 0.0, 0.0, 0.0, 0.0, 0.0, 0.0, 1.708991254514453E9, 0.0, 2024-02-26 18:47:34.514
14.0, 187500.0, 187500.0, 30767.533870641455, -183758.876771793, 187500.0, -183243.37848942025, -183310.59018499736, -183296.30742029042, 0.062, -0.004, 0.982, 192.0, 0.0, 0.0, 0.0, 0.0, 0.0, 0.0, 0.0, 0.0, 0.0, 1.708991254519461E9, 0.0, 2024-02-26 18:47:34.519
15.0, 187500.0, 187500.0, 29709.469343360586, -183614.30568865608, 187500.0, -183128.6693368756, -183155.93846511107, -183140.20283701454, 0.062, -0.004, 0.982, 192.0, 0.0, 0.0, 0.0, 0.0, 0.0, 0.0, 0.0, 0.0, 0.0, 1.708991254524479E9, 0.0, 2024-02-26 18:47:34.524
16.0, 187500.0, 187500.0, 29418.449630552488, -183632.12002898694, 187500.0, -183125.13776125168, -183183.07348287982, -183166.86846814974, 0.062, -0.004, 0.982, 192.0, 0.0, 0.0, 0.0, 0.0, 0.0, 0.0, 0.0, 0.0, 0.0, 1.708991254528486E9, 0.0, 2024-02-26 18:47:34.528
17.0, 187500.0, 187500.0, 30153.68791266536, -183773.38305394448, 187500.0, -183251.1568964907, -183335.4229730872, -183318.50270253455, 0.062, -0.004, 0.982, 192.0, 0.0, 0.0, 0.0, 0.0, 0.0, 0.0, 0.0, 0.0, 0.0, 1.708991254531476E9, 0.0, 2024-02-26 18:47:34.531
18.0, 187500.0, 187500.0, 30405.480313954395, -183787.71052214035, 187500.0, -183260.4105186952, -183357.5288483535, -183338.86514173332, 0.062, -0.004, 0.982, 192.0, 0.0, 0.0, 0.0, 0.0, 0.0, 0.0, 0.0, 0.0, 0.0, 1.708991254535474E9, 0.0, 2024-02-26 18:47:34.535
19.0, 187500.0, 187500.0, 29609.62410087873, -183598.10067392598, 187500.0, -183148.98707258547, -183181.1288811122, -183162.26400879194, 0.07, -0.004, 0.986, 192.0, 2.0, 48.0, 255.0, 224.0, 30.0, 208.0, 0.0, 0.0, 0.0, 1.708991254539468E9, 0.0, 2024-02-26 18:47:34.539
20.0, 187500.0, 187500.0, 29605.53373164341, -183524.1611032678, 187500.0, -183128.89285432018, -183130.7256973655, -183117.94049953707, 0.07, -0.004, 0.986, 192.0, 0.0, 0.0, 0.0, 0.0, 0.0, 0.0, 0.0, 0.0, 0.0, 1.708991254544454E9, 0.0, 2024-02-26 18:47:34.544
21.0, 187500.0, 187500.0, 30454.900020945075, -183603.26392689513, 187500.0, -183178.51372701096, -183216.37758211824, -183205.4028755907, 0.07, -0.004, 0.986, 192.0, 0.0, 0.0, 0.0, 0.0, 0.0, 0.0, 0.0, 0.0, 0.0, 1.708991254547523E9, 0.0, 2024-02-26 18:47:34.547
22.0, 187500.0, 187500.0, 30915.480067191133, -183670.2074015388, 187500.0, -183238.23758819554, -183294.34046677835, -183282.20346953912, 0.07, -0.004, 0.986, 192.0, 0.0, 0.0, 0.0, 0.0, 0.0, 0.0, 0.0, 0.0, 0.0, 1.708991254550496E9, 0.0, 2024-02-26 18:47:34.550
23.0, 187500.0, 187500.0, 29832.24747565359, -183500.71412333418, 187500.0, -183156.00552034445, -183206.56516630235, -183175.27272406494, 0.07, -0.004, 0.986, 192.0, 0.0, 0.0, 0.0, 0.0, 0.0, 0.0, 0.0, 0.0, 0.0, 1.708991254554494E9, 0.0, 2024-02-26 18:47:34.554
24.0, 187500.0, 187500.0, 29406.245578079892, -183398.47724419562, 187500.0, -183127.30588046383, -183155.7820028999, -183128.11054326422, 0.07, -0.004, 0.986, 192.0, 0.0, 0.0, 0.0, 0.0, 0.0, 0.0, 0.0, 0.0, 0.0, 1.708991254559508E9, 0.0, 2024-02-26 18:47:34.559
25.0, 187500.0, 187500.0, 29977.511462868628, -183466.31478861748, 187500.0, -183158.50891572345, -183207.0569046804, -183186.6944654816, 0.07, -0.004, 0.986, 192.0, 0.0, 0.0, 0.0, 0.0, 0.0, 0.0, 0.0, 0.0, 0.0, 1.708991254563506E9, 0.0, 2024-02-26 18:47:34.563
26.0, 187500.0, 187500.0, 30675.288221274404, -183573.29023758057, 187500.0, -183250.46399241258, -183324.023583415, -183303.23646107156, 0.07, -0.004, 0.986, 192.0, 0.0, 0.0, 0.0, 0.0, 0.0, 0.0, 0.0, 0.0, 0.0, 1.708991254567507E9, 0.0, 2024-02-26 18:47:34.567
27.0, 187500.0, 187500.0, 29735.553829139928, -183418.3926485053, 187500.0, -183157.77130815643, -183226.23470142303, -183189.35432307178, 0.07, -0.004, 0.986, 192.0, 0.0, 0.0, 0.0, 0.0, 0.0, 0.0, 0.0, 0.0, 0.0, 1.708991254571513E9, 0.0, 2024-02-26 18:47:34.571
28.0, 187500.0, 187500.0, 29263.842614155128, -183317.02748740048, 187500.0, -183128.49052291998, -183215.5952710623, -183164.4321280041, 0.07, -0.004, 0.988, 192.0, 2.0, 48.0, 255.0, 224.0, 30.0, 224.0, 0.0, 0.0, 0.0, 1.708991254575513E9, 0.0, 2024-02-26 18:47:34.575
29.0, 187500.0, 187500.0, 29843.222182181144, -183385.96026730066, 187500.0, -183160.09588957977, -183263.78563210793, -183226.79349503442, 0.07, -0.004, 0.988, 192.0, 0.0, 0.0, 0.0, 0.0, 0.0, 0.0, 0.0, 0.0, 0.0, 1.708991254578548E9, 0.0, 2024-02-26 18:47:34.578
30.0, 187500.0, 187500.0, 30830.34227256087, -183491.10287321842, 187500.0, -183249.77108833447, -183375.92433404023, -183339.31217662242, 0.07, -0.004, 0.988, 192.0, 0.0, 0.0, 0.0, 0.0, 0.0, 0.0, 0.0, 0.0, 0.0, 1.708991254582554E9, 0.0, 2024-02-26 18:47:34.582
31.0, 187500.0, 187500.0, 30015.97881507621, -183377.48895615208, 187500.0, -183170.48945075148, -183266.98193156504, -183228.93926250213, 0.07, -0.004, 0.988, 192.0, 0.0, 0.0, 0.0, 0.0, 0.0, 0.0, 0.0, 0.0, 0.0, 1.708991254587568E9, 0.0, 2024-02-26 18:47:34.587
32.0, 187500.0, 187500.0, 29012.31843379956, -183275.67676015815, 187500.0, -183134.7713631119, -183171.31646529635, -183131.01627004342, 0.07, -0.004, 0.988, 192.0, 0.0, 0.0, 0.0, 0.0, 0.0, 0.0, 0.0, 0.0, 0.0, 1.708991254591559E9, 0.0, 2024-02-26 18:47:34.591
33.0, 187500.0, 187500.0, 29036.905352700396, -183330.95262419613, 187500.0, -183158.66537793464, -183236.06946898336, -183194.96461093004, 0.07, -0.004, 0.988, 192.0, 0.0, 0.0, 0.0, 0.0, 0.0, 0.0, 0.0, 0.0, 0.0, 1.708991254595573E9, 0.0, 2024-02-26 18:47:34.595
34.0, 187500.0, 187500.0, 30044.94667589029, -183487.34778014992, 187500.0, -183299.79429242545, -183403.796959376, -183362.87091527833, 0.07, -0.004, 0.988, 192.0, 0.0, 0.0, 0.0, 0.0, 0.0, 0.0, 0.0, 0.0, 0.0, 1.708991254599564E9, 0.0, 2024-02-26 18:47:34.599
35.0, 187500.0, 187500.0, 29829.341748874398, -183452.36730007737, 187500.0, -183254.28614071442, -183376.86310730735, -183334.79712424244, 0.07, -0.004, 0.988, 192.0, 0.0, 0.0, 0.0, 0.0, 0.0, 0.0, 0.0, 0.0, 0.0, 1.708991254602563E9, 0.0, 2024-02-26 18:47:34.602
36.0, 187500.0, 187500.0, 29072.221108939782, -183345.19068541416, 187500.0, -183134.5254939229, -183274.40271072421, -183230.83916078083, 0.07, -0.004, 0.988, 192.0, 0.0, 0.0, 0.0, 0.0, 0.0, 0.0, 0.0, 0.0, 0.0, 1.708991254606561E9, 0.0, 2024-02-26 18:47:34.606
37.0, 187500.0, 187500.0, 29048.662370283888, -183350.1304209388, 187500.0, -183128.8257990868, -183288.68547543115, -183244.004338265, 0.07, -0.004, 0.988, 192.0, 0.0, 0.0, 0.0, 0.0, 0.0, 0.0, 0.0, 0.0, 0.0, 1.708991254610546E9, 0.0, 2024-02-26 18:47:34.610
38.0, 187500.0, 187500.0, 29805.626548007316, -183492.33221916345, 187500.0, -183259.42704193917, -183441.41494529427, -183396.778511617, 0.07, -0.004, 0.986, 192.0, 2.0, 48.0, 255.0, 224.0, 30.0, 208.0, 0.0, 0.0, 0.0, 1.708991254614541E9, 0.0, 2024-02-26 18:47:34.614
39.0, 187500.0, 187500.0, 29545.452242547544, -183467.63354154033, 187500.0, -183236.0471172389, -183423.57825321893, -183377.42190091874, 0.07, -0.004, 0.986, 192.0, 0.0, 0.0, 0.0, 0.0, 0.0, 0.0, 0.0, 0.0, 0.0, 1.708991254619544E9, 0.0, 2024-02-26 18:47:34.619
40.0, 187500.0, 187500.0, 28577.509948910472, -183291.65825744372, 187500.0, -183148.16005804064, -183250.7992685794, -183203.81590173434, 0.07, -0.004, 0.986, 192.0, 0.0, 0.0, 0.0, 0.0, 0.0, 0.0, 0.0, 0.0, 0.0, 1.708991254623549E9, 0.0, 2024-02-26 18:47:34.623
41.0, 187500.0, 187500.0, 28758.89435516529, -183246.46303015508, 187500.0, -183124.35545019573, -183213.36009661676, -183164.40977625965, 0.07, -0.004, 0.986, 192.0, 0.0, 0.0, 0.0, 0.0, 0.0, 0.0, 0.0, 0.0, 0.0, 1.708991254627574E9, 0.0, 2024-02-26 18:47:34.627
42.0, 187500.0, 187500.0, 30105.408144641897, -183354.93604599667, 187500.0, -183207.1016081693, -183332.78546724148, -183282.67285617266, 0.07, -0.004, 0.986, 192.0, 0.0, 0.0, 0.0, 0.0, 0.0, 0.0, 0.0, 0.0, 0.0, 1.708991254630574E9, 0.0, 2024-02-26 18:47:34.630
43.0, 187500.0, 187500.0, 30832.91272317323, -183368.32474092543, 187500.0, -183226.14529444522, -183354.95839774114, -183305.42693202817, 0.07, -0.004, 0.986, 192.0, 0.0, 0.0, 0.0, 0.0, 0.0, 0.0, 0.0, 0.0, 0.0, 1.708991254634561E9, 0.0, 2024-02-26 18:47:34.634
44.0, 187500.0, 187500.0, 29973.756369800136, -183128.7810955979, 187500.0, -183149.00942432994, -183186.26978233692, -183161.14642156917, 0.07, -0.004, 0.986, 192.0, 0.0, 0.0, 0.0, 0.0, 0.0, 0.0, 0.0, 0.0, 0.0, 1.708991254638605E9, 0.0, 2024-02-26 18:47:34.638
45.0, 187500.0, 187500.0, 29522.429945758577, -182938.2771776053, 187500.0, -183121.8297030723, -183142.25919750443, -183126.74708685247, 0.07, -0.004, 0.986, 192.0, 0.0, 0.0, 0.0, 0.0, 0.0, 0.0, 0.0, 0.0, 0.0, 1.708991254642627E9, 0.0, 2024-02-26 18:47:34.642
46.0, 187500.0, 187500.0, 29997.49392241167, -183277.97898983705, 187500.0, -183173.3281222973, -183232.15791370368, -183215.1035326843, 0.07, -0.004, 0.986, 192.0, 0.0, 0.0, 0.0, 0.0, 0.0, 0.0, 0.0, 0.0, 0.0, 1.708991254647605E9, 0.0, 2024-02-26 18:47:34.647
47.0, 187500.0, 187500.0, 30481.051561957785, -183741.10713495102, 187500.0, -183250.91102730168, -183326.75049623853, -183308.1091413628, 0.07, -0.004, 0.986, 192.0, 0.0, 0.0, 0.0, 0.0, 0.0, 0.0, 0.0, 0.0, 0.0, 1.708991254651607E9, 0.0, 2024-02-26 18:47:34.651
48.0, 187500.0, 187500.0, 29661.413092781677, -183626.42033415084, 187500.0, -183153.18920054307, -183194.51757604093, -183164.52153498193, 0.068, -0.006, 0.984, 192.0, 2.0, 32.0, 255.0, 208.0, 30.0, 192.0, 0.0, 0.0, 0.0, 1.708991254655605E9, 0.0, 2024-02-26 18:47:34.655
49.0, 187500.0, 187500.0, 29556.4269490751, -183537.59450168547, 187500.0, -183129.1834269981, -183153.85975287674, -183120.980336783, 0.068, -0.006, 0.984, 192.0, 0.0, 0.0, 0.0, 0.0, 0.0, 0.0, 0.0, 0.0, 0.0, 1.708991254658627E9, 0.0, 2024-02-26 18:47:34.658
50.0, 187500.0, 187500.0, 30346.047025447733, -183609.00832522017, 187500.0, -183167.89664839467, -183225.20652117807, -183197.78093073142, 0.068, -0.006, 0.984, 192.0, 0.0, 0.0, 0.0, 0.0, 0.0, 0.0, 0.0, 0.0, 0.0, 1.70899125466263E9, 0.0, 2024-02-26 18:47:34.662
51.0, 187500.0, 187500.0, 31173.285087738645, -183687.57470698055, 187500.0, -183234.05781198238, -183308.93615590766, -183282.62815268376, 0.068, -0.006, 0.984, 192.0, 0.0, 0.0, 0.0, 0.0, 0.0, 0.0, 0.0, 0.0, 0.0, 1.708991254666609E9, 0.0, 2024-02-26 18:47:34.666
52.0, 187500.0, 187500.0, 30216.630425051502, -183529.99490857066, 187500.0, -183151.06578481983, -183200.3960848327, -183170.35534028476, 0.068, -0.006, 0.984, 192.0, 0.0, 0.0, 0.0, 0.0, 0.0, 0.0, 0.0, 0.0, 0.0, 1.708991254671605E9, 0.0, 2024-02-26 18:47:34.671
53.0, 187500.0, 187500.0, 29465.54475611982, -183418.37029676084, 187500.0, -183130.30101422084, -183151.64693017566, -183126.3671071967, 0.068, -0.006, 0.984, 192.0, 0.0, 0.0, 0.0, 0.0, 0.0, 0.0, 0.0, 0.0, 0.0, 1.708991254675594E9, 0.0, 2024-02-26 18:47:34.675
54.0, 187500.0, 187500.0, 29734.726814595084, -183469.1534601633, 187500.0, -183147.9365405961, -183194.11524464074, -183173.81986067534, 0.068, -0.006, 0.984, 192.0, 0.0, 0.0, 0.0, 0.0, 0.0, 0.0, 0.0, 0.0, 0.0, 1.708991254679637E9, 0.0, 2024-02-26 18:47:34.679
55.0, 187500.0, 187500.0, 30646.58858139379, -183620.18419744782, 187500.0, -183279.14128054873, -183352.85733376234, -183333.25485387503, 0.068, -0.006, 0.984, 192.0, 0.0, 0.0, 0.0, 0.0, 0.0, 0.0, 0.0, 0.0, 0.0, 1.708991254682655E9, 0.0, 2024-02-26 18:47:34.682
56.0, 187500.0, 187500.0, 30033.65904494036, -183522.39531545585, 187500.0, -183197.6021167758, -183260.87990532877, -183240.0927829853, 0.068, -0.006, 0.984, 192.0, 0.0, 0.0, 0.0, 0.0, 0.0, 0.0, 0.0, 0.0, 0.0, 1.708991254686651E9, 0.0, 2024-02-26 18:47:34.686
57.0, 187500.0, 187500.0, 29318.693795048453, -183378.3830259303, 187500.0, -183121.226205972, -183125.65185137413, -183108.2621941879, 0.068, -0.006, 0.984, 192.0, 0.0, 0.0, 0.0, 0.0, 0.0, 0.0, 0.0, 0.0, 0.0, 1.708991254690665E9, 0.0, 2024-02-26 18:47:34.690
58.0, 187500.0, 187500.0, 29578.890452252683, -183383.90390681077, 187500.0, -183119.88510130468, -183149.65762491914, -183129.1834269981, 0.062, -0.004, 0.984, 192.0, 1.0, 240.0, 255.0, 224.0, 30.0, 192.0, 0.0, 0.0, 0.0, 1.708991254694654E9, 0.0, 2024-02-26 18:47:34.694
59.0, 187500.0, 187500.0, 30588.541101043356, -183540.3661179979, 187500.0, -183253.6602918697, -183312.82535944288, -183293.35699002232, 0.062, -0.004, 0.984, 192.0, 0.0, 0.0, 0.0, 0.0, 0.0, 0.0, 0.0, 0.0, 0.0, 1.708991254698646E9, 0.0, 2024-02-26 18:47:34.698
60.0, 187500.0, 187500.0, 30154.313761510108, -183486.8560417719, 187500.0, -183206.9004424692, -183269.2171060106, -183248.4970389005, 0.062, -0.004, 0.984, 192.0, 0.0, 0.0, 0.0, 0.0, 0.0, 0.0, 0.0, 0.0, 0.0, 1.708991254703633E9, 0.0, 2024-02-26 18:47:34.703
61.0, 187500.0, 187500.0, 29112.454248959333, -183323.12951363678, 187500.0, -183132.4244299441, -183150.88697086417, -183126.1212380077, 0.062, -0.004, 0.984, 192.0, 0.0, 0.0, 0.0, 0.0, 0.0, 0.0, 0.0, 0.0, 0.0, 1.708991254707642E9, 0.0, 2024-02-26 18:47:34.707
62.0, 187500.0, 187500.0, 29125.082984576584, -183307.50564426254, 187500.0, -183109.2233191995, -183146.4836772065, -183128.2670054754, 0.062, -0.004, 0.984, 192.0, 0.0, 0.0, 0.0, 0.0, 0.0, 0.0, 0.0, 0.0, 0.0, 1.70899125471066E9, 0.0, 2024-02-26 18:47:34.710
63.0, 187500.0, 187500.0, 30205.342794101573, -183435.71525045816, 187500.0, -183212.01899194944, -183278.4707282151, -183260.7010913731, 0.062, -0.004, 0.984, 192.0, 0.0, 0.0, 0.0, 0.0, 0.0, 0.0, 0.0, 0.0, 0.0, 1.708991254714672E9, 0.0, 2024-02-26 18:47:34.714
64.0, 187500.0, 187500.0, 30377.183005473973, -183457.12822164636, 187500.0, -183231.10738171428, -183308.62323148528, -183290.71948417657, 0.062, -0.004, 0.984, 192.0, 0.0, 0.0, 0.0, 0.0, 0.0, 0.0, 0.0, 0.0, 0.0, 1.708991254718645E9, 0.0, 2024-02-26 18:47:34.718
65.0, 187500.0, 187500.0, 29409.575988003733, -183280.97412359406, 187500.0, -183146.70719465104, -183191.67890449511, -183157.72660466752, 0.062, -0.004, 0.984, 192.0, 0.0, 0.0, 0.0, 0.0, 0.0, 0.0, 0.0, 0.0, 0.0, 1.708991254722699E9, 0.0, 2024-02-26 18:47:34.722
66.0, 187500.0, 187500.0, 29225.755241603285, -183167.76253792795, 187500.0, -183127.88702581968, -183164.05214834836, -183129.6304618872, 0.062, -0.004, 0.984, 192.0, 0.0, 0.0, 0.0, 0.0, 0.0, 0.0, 0.0, 0.0, 0.0, 1.708991254728699E9, 0.0, 2024-02-26 18:47:34.728
67.0, 187500.0, 187500.0, 30096.467446859773, -183258.46591692758, 187500.0, -183191.45538705058, -183237.0529457394, -183214.500035584, 0.062, -0.004, 0.984, 192.0, 0.0, 0.0, 0.0, 0.0, 0.0, 0.0, 0.0, 0.0, 0.0, 1.708991254731693E9, 0.0, 2024-02-26 18:47:34.731
68.0, 187500.0, 187500.0, 30549.20203080202, -183306.9692023956, 187500.0, -183225.27357641145, -183296.01684761248, -183271.58639092284, 0.06, 0.0, 0.986, 192.0, 1.0, 224.0, 0.0, 0.0, 30.0, 208.0, 0.0, 0.0, 0.0, 1.708991254735678E9, 0.0, 2024-02-26 18:47:34.735
69.0, 187500.0, 187500.0, 29683.720133748073, -183032.22155955096, 187500.0, -183133.7878863559, -183185.3757125587, -183154.35149125475, 0.06, 0.0, 0.986, 192.0, 0.0, 0.0, 0.0, 0.0, 0.0, 0.0, 0.0, 0.0, 0.0, 1.708991254738678E9, 0.0, 2024-02-26 18:47:34.738
70.0, 187500.0, 187500.0, 29573.503681838953, -182919.7699331963, 187500.0, -183116.8676158032, -183143.51089519393, -183116.4205809141, 0.06, 0.0, 0.986, 192.0, 0.0, 0.0, 0.0, 0.0, 0.0, 0.0, 0.0, 0.0, 0.0, 1.70899125474269E9, 0.0, 2024-02-26 18:47:34.742
71.0, 187500.0, 187500.0, 30456.017608167844, -183326.34816483836, 187500.0, -183187.0297416484, -183227.55345434588, -183208.91209947015, 0.06, 0.0, 0.986, 192.0, 0.0, 0.0, 0.0, 0.0, 0.0, 0.0, 0.0, 0.0, 0.0, 1.70899125474669E9, 0.0, 2024-02-26 18:47:34.746
72.0, 187500.0, 187500.0, 31237.836925725573, -183763.21301021733, 187500.0, -183247.46885865557, -183313.38415305427, -183293.66991444468, 0.06, 0.0, 0.986, 192.0, 0.0, 0.0, 0.0, 0.0, 0.0, 0.0, 0.0, 0.0, 0.0, 1.70899125475068E9, 0.0, 2024-02-26 18:47:34.750
73.0, 187500.0, 187500.0, 30396.8748923391, -183624.0510492386, 187500.0, -183143.68970914956, -183187.36501781526, -183159.11241282374, 0.06, 0.0, 0.986, 192.0, 0.0, 0.0, 0.0, 0.0, 0.0, 0.0, 0.0, 0.0, 0.0, 1.708991254754679E9, 0.0, 2024-02-26 18:47:34.754
74.0, 187500.0, 187500.0, 30028.786364649102, -183517.9696700537, 187500.0, -183106.20583369804, -183130.94921481004, -183111.54790062286, 0.06, 0.0, 0.986, 192.0, 0.0, 0.0, 0.0, 0.0, 0.0, 0.0, 0.0, 0.0, 0.0, 1.708991254759731E9, 0.0, 2024-02-26 18:47:34.759
75.0, 187500.0, 187500.0, 30592.63147027868, -183593.11623491245, 187500.0, -183142.21449401553, -183194.9422591856, -183180.480680523, 0.06, 0.0, 0.986, 192.0, 0.0, 0.0, 0.0, 0.0, 0.0, 0.0, 0.0, 0.0, 0.0, 1.708991254763731E9, 0.0, 2024-02-26 18:47:34.763
76.0, 187500.0, 187500.0, 31425.680986127973, -183728.5678063116, 187500.0, -183262.6009896518, -183340.273301634, -183325.0741154044, 0.06, 0.0, 0.986, 192.0, 0.0, 0.0, 0.0, 0.0, 0.0, 0.0, 0.0, 0.0, 0.0, 1.708991254766723E9, 0.0, 2024-02-26 18:47:34.766
77.0, 187500.0, 187500.0, 30559.841461162745, -183600.4923105827, 187500.0, -183165.97439837153, -183217.94220423012, -183202.1395209002, 0.06, 0.0, 0.986, 192.0, 0.0, 0.0, 0.0, 0.0, 0.0, 0.0, 0.0, 0.0, 0.0, 1.708991254771741E9, 0.0, 2024-02-26 18:47:34.771
78.0, 187500.0, 187500.0, 29860.589487622918, -183475.68016954424, 187500.0, -183109.49154013296, -183110.1173889777, -183088.81617651178, 0.066, 0.0, 0.984, 192.0, 2.0, 16.0, 0.0, 0.0, 30.0, 192.0, 0.0, 0.0, 0.0, 1.708991254774728E9, 0.0, 2024-02-26 18:47:34.774
79.0, 187500.0, 187500.0, 30173.804482675136, -183498.34483842194, 187500.0, -183127.66350837512, -183152.40688948715, -183133.81023810033, 0.066, 0.0, 0.984, 192.0, 0.0, 0.0, 0.0, 0.0, 0.0, 0.0, 0.0, 0.0, 0.0, 1.708991254778749E9, 0.0, 2024-02-26 18:47:34.778
80.0, 187500.0, 187500.0, 31160.07520676556, -183644.97228204875, 187500.0, -183258.89060007222, -183308.57852799637, -183293.33463827785, 0.066, 0.0, 0.984, 192.0, 0.0, 0.0, 0.0, 0.0, 0.0, 0.0, 0.0, 0.0, 0.0, 1.708991254782733E9, 0.0, 2024-02-26 18:47:34.782
81.0, 187500.0, 187500.0, 30553.985304115453, -183543.65182443283, 187500.0, -183164.4321280041, -183212.77895126093, -183194.91990744113, 0.066, 0.0, 0.984, 192.0, 0.0, 0.0, 0.0, 0.0, 0.0, 0.0, 0.0, 0.0, 0.0, 1.70899125478772E9, 0.0, 2024-02-26 18:47:34.787
82.0, 187500.0, 187500.0, 29656.473357257055, -183406.47916871062, 187500.0, -183110.8102930558, -183138.99584281395, -183105.98231625347, 0.066, 0.0, 0.984, 192.0, 0.0, 0.0, 0.0, 0.0, 0.0, 0.0, 0.0, 0.0, 0.0, 1.708991254791718E9, 0.0, 2024-02-26 18:47:34.791
83.0, 187500.0, 187500.0, 29710.60928232781, -183375.09731949537, 187500.0, -183112.79959831235, -183144.51672369443, -183123.34962169523, 0.066, 0.0, 0.984, 192.0, 0.0, 0.0, 0.0, 0.0, 0.0, 0.0, 0.0, 0.0, 0.0, 1.708991254794732E9, 0.0, 2024-02-26 18:47:34.794
84.0, 187500.0, 187500.0, 30702.467942532057, -183520.00367879914, 187500.0, -183234.37073640476, -183281.75643465001, -183263.4503559411, 0.066, 0.0, 0.984, 192.0, 0.0, 0.0, 0.0, 0.0, 0.0, 0.0, 0.0, 0.0, 0.0, 1.708991254798827E9, 0.0, 2024-02-26 18:47:34.798
85.0, 187500.0, 187500.0, 30483.286736403315, -183474.98726546613, 187500.0, -183193.80232021838, -183260.32111171738, -183234.77306780496, 0.066, 0.0, 0.984, 192.0, 0.0, 0.0, 0.0, 0.0, 0.0, 0.0, 0.0, 0.0, 0.0, 1.708991254803824E9, 0.0, 2024-02-26 18:47:34.803
86.0, 187500.0, 187500.0, 29565.792330001874, -183285.44447248513, 187500.0, -183095.85697601523, -183169.21540131755, -183116.44293265857, 0.066, 0.0, 0.984, 192.0, 0.0, 0.0, 0.0, 0.0, 0.0, 0.0, 0.0, 0.0, 0.0, 1.708991254808824E9, 0.0, 2024-02-26 18:47:34.808
87.0, 187500.0, 187500.0, 29554.638809518674, -183269.48532694404, 187500.0, -183080.25545838542, -183146.43897371757, -183105.64704008665, 0.066, 0.0, 0.984, 192.0, 0.0, 0.0, 0.0, 0.0, 0.0, 0.0, 0.0, 0.0, 0.0, 1.708991254811822E9, 0.0, 2024-02-26 18:47:34.811
88.0, 187500.0, 187500.0, 30484.627841070636, -183394.6774476382, 187500.0, -183181.7770817014, -183273.2180682681, -183234.30368117138, 0.062, -0.006, 0.978, 192.0, 1.0, 240.0, 255.0, 208.0, 30.0, 144.0, 0.0, 0.0, 0.0, 1.708991254815828E9, 0.0, 2024-02-26 18:47:34.815
89.0, 187500.0, 187500.0, 30604.701412284543, -183399.8854040963, 187500.0, -183192.26004985097, -183286.13737656325, -183248.56409413388, 0.062, -0.006, 0.978, 192.0, 0.0, 0.0, 0.0, 0.0, 0.0, 0.0, 0.0, 0.0, 0.0, 1.708991254818815E9, 0.0, 2024-02-26 18:47:34.818
90.0, 187500.0, 187500.0, 29666.710456217585, -183230.01214623597, 187500.0, -183117.5158163924, -183127.5293979084, -183112.6207843567, 0.062, -0.006, 0.978, 192.0, 0.0, 0.0, 0.0, 0.0, 0.0, 0.0, 0.0, 0.0, 0.0, 1.708991254821818E9, 0.0, 2024-02-26 18:47:34.821
91.0, 187500.0, 187500.0, 29572.0284667049, -183188.236735849, 187500.0, -183086.73746427745, -183097.68981906056, -183085.8657462437, 0.062, -0.006, 0.978, 192.0, 0.0, 0.0, 0.0, 0.0, 0.0, 0.0, 0.0, 0.0, 0.0, 1.708991254826815E9, 0.0, 2024-02-26 18:47:34.826
92.0, 187500.0, 187500.0, 30457.671637257536, -183318.68151649018, 187500.0, -183188.0802736378, -183236.40474515018, -183220.46795135355, 0.062, -0.006, 0.978, 192.0, 0.0, 0.0, 0.0, 0.0, 0.0, 0.0, 0.0, 0.0, 0.0, 1.708991254830818E9, 0.0, 2024-02-26 18:47:34.830
93.0, 187500.0, 187500.0, 30877.21388068365, -183382.24987772107, 187500.0, -183241.59034986384, -183309.49494951905, -183293.40169351123, 0.062, -0.006, 0.978, 192.0, 0.0, 0.0, 0.0, 0.0, 0.0, 0.0, 0.0, 0.0, 0.0, 1.708991254834816E9, 0.0, 2024-02-26 18:47:34.834
94.0, 187500.0, 187500.0, 29833.588580320906, -183226.83819852333, 187500.0, -183125.04835427384, -183160.6323314467, -183143.64500566066, 0.062, -0.006, 0.978, 192.0, 0.0, 0.0, 0.0, 0.0, 0.0, 0.0, 0.0, 0.0, 0.0, 1.708991254838816E9, 0.0, 2024-02-26 18:47:34.838
95.0, 187500.0, 187500.0, 29468.27166894337, -183151.02108133092, 187500.0, -183089.19615616754, -183101.44491212905, -183086.87157474417, 0.062, -0.006, 0.978, 192.0, 0.0, 0.0, 0.0, 0.0, 0.0, 0.0, 0.0, 0.0, 0.0, 1.708991254843818E9, 0.0, 2024-02-26 18:47:34.843
96.0, 187500.0, 187500.0, 30148.234087018263, -183234.61660559376, 187500.0, -183146.5283806954, -183192.95295392908, -183180.234811334, 0.062, -0.006, 0.978, 192.0, 0.0, 0.0, 0.0, 0.0, 0.0, 0.0, 0.0, 0.0, 0.0, 1.708991254846853E9, 0.0, 2024-02-26 18:47:34.846
97.0, 187500.0, 187500.0, 30898.671555360743, -183329.4774090621, 187500.0, -183229.22983518004, -183296.97797262407, -183283.3657602508, 0.062, -0.006, 0.978, 192.0, 0.0, 0.0, 0.0, 0.0, 0.0, 0.0, 0.0, 0.0, 0.0, 1.708991254849816E9, 0.0, 2024-02-26 18:47:34.849
98.0, 187500.0, 187500.0, 30009.85443709546, -183100.6626010731, 187500.0, -183126.74708685247, -183186.80622420387, -183157.52543896742, 0.064, -0.004, 0.98, 192.0, 2.0, 0.0, 255.0, 224.0, 30.0, 160.0, 0.0, 0.0, 0.0, 1.708991254854818E9, 0.0, 2024-02-26 18:47:34.854
99.0, 187500.0, 187500.0, 29514.338614265755, -182881.68256064446, 187500.0, -183103.38951389666, -183138.41469745812, -183107.8151592988, 0.064, -0.004, 0.98, 192.0, 0.0, 0.0, 0.0, 0.0, 0.0, 0.0, 0.0, 0.0, 0.0, 1.70899125485882E9, 0.0, 2024-02-26 18:47:34.858
100.0, 187500.0, 187500.0, 29977.332648912987, -183190.56131727237, 187500.0, -183126.970604297, -183174.71393045355, -183156.83253488928, 0.064, -0.004, 0.98, 192.0, 0.0, 0.0, 0.0, 0.0, 0.0, 0.0, 0.0, 0.0, 0.0, 1.708991254862868E9, 0.0, 2024-02-26 18:47:34.862
101.0, 187500.0, 187500.0, 30828.95646440464, -183701.58925075404, 187500.0, -183218.2998321414, -183291.6135539548, -183272.68162640114, 0.064, -0.004, 0.98, 192.0, 0.0, 0.0, 0.0, 0.0, 0.0, 0.0, 0.0, 0.0, 0.0, 1.708991254866859E9, 0.0, 2024-02-26 18:47:34.866
102.0, 187500.0, 187500.0, 30062.157519120876, -183647.67684312785, 187500.0, -183131.19508399907, -183194.76344522997, -183155.37967149972, 0.064, -0.004, 0.98, 192.0, 0.0, 0.0, 0.0, 0.0, 0.0, 0.0, 0.0, 0.0, 0.0, 1.708991254871846E9, 0.0, 2024-02-26 18:47:34.871
103.0, 187500.0, 187500.0, 29405.97735714643, -183495.08148373145, 187500.0, -183088.65971430062, -183173.01519787495, -183111.23497620047, 0.064, -0.004, 0.98, 192.0, 0.0, 0.0, 0.0, 0.0, 0.0, 0.0, 0.0, 0.0, 0.0, 1.708991254874843E9, 0.0, 2024-02-26 18:47:34.874
104.0, 187500.0, 187500.0, 29702.83087525736, -183527.7597341251, 187500.0, -183098.00274348294, -183179.89953516718, -183145.72371789502, 0.064, -0.004, 0.98, 192.0, 0.0, 0.0, 0.0, 0.0, 0.0, 0.0, 0.0, 0.0, 0.0, 1.708991254877845E9, 0.0, 2024-02-26 18:47:34.877
105.0, 187500.0, 187500.0, 30628.01428175143, -183634.89164529942, 187500.0, -183180.90536366767, -183288.59606845333, -183253.36971919177, 0.064, -0.004, 0.98, 192.0, 0.0, 0.0, 0.0, 0.0, 0.0, 0.0, 0.0, 0.0, 0.0, 1.708991254882821E9, 0.0, 2024-02-26 18:47:34.882
106.0, 187500.0, 187500.0, 30082.944641464313, -183543.96474885521, 187500.0, -183137.8782555912, -183216.48934084052, -183185.3757125587, 0.064, -0.004, 0.98, 192.0, 0.0, 0.0, 0.0, 0.0, 0.0, 0.0, 0.0, 0.0, 0.0, 1.70899125488683E9, 0.0, 2024-02-26 18:47:34.886
107.0, 187500.0, 187500.0, 29268.625887468566, -183392.17405225922, 187500.0, -183090.53726083486, -183110.0726854888, -183091.5654410798, 0.068, -0.004, 0.976, 192.0, 2.0, 32.0, 255.0, 224.0, 30.0, 128.0, 0.0, 0.0, 0.0, 1.708991254890839E9, 0.0, 2024-02-26 18:47:34.890
108.0, 187500.0, 187500.0, 29511.075259575282, -183398.41018896227, 187500.0, -183077.99793219543, -183114.69949659106, -183096.63928707116, 0.068, -0.004, 0.976, 192.0, 0.0, 0.0, 0.0, 0.0, 0.0, 0.0, 0.0, 0.0, 0.0, 1.708991254894858E9, 0.0, 2024-02-26 18:47:34.894
109.0, 187500.0, 187500.0, 30705.21720710006, -183557.7781269286, 187500.0, -183218.38923911922, -183282.67285617266, -183264.9479228196, 0.068, -0.004, 0.976, 192.0, 0.0, 0.0, 0.0, 0.0, 0.0, 0.0, 0.0, 0.0, 0.0, 1.708991254899842E9, 0.0, 2024-02-26 18:47:34.899
110.0, 187500.0, 187500.0, 30659.530241433415, -183514.8627775744, 187500.0, -183198.2950208539, -183263.33859721883, -183240.38335566325, 0.068, -0.004, 0.976, 192.0, 0.0, 0.0, 0.0, 0.0, 0.0, 0.0, 0.0, 0.0, 0.0, 1.708991254902848E9, 0.0, 2024-02-26 18:47:34.902
111.0, 187500.0, 187500.0, 29720.734622566062, -183313.85353968784, 187500.0, -183093.62180156968, -183128.93755780908, -183099.83558652826, 0.068, -0.004, 0.976, 192.0, 0.0, 0.0, 0.0, 0.0, 0.0, 0.0, 0.0, 0.0, 0.0, 1.70899125490585E9, 0.0, 2024-02-26 18:47:34.905
112.0, 187500.0, 187500.0, 29654.30523804489, -183313.85353968784, 187500.0, -183071.73944374794, -183120.51095014942, -183100.8190632843, 0.068, -0.004, 0.976, 192.0, 0.0, 0.0, 0.0, 0.0, 0.0, 0.0, 0.0, 0.0, 0.0, 1.7089912549109E9, 0.0, 2024-02-26 18:47:34.910
113.0, 187500.0, 187500.0, 30586.104760897728, -183450.17682912076, 187500.0, -183186.0462648924, -183263.38330070773, -183243.26673069797, 0.068, -0.004, 0.976, 192.0, 0.0, 0.0, 0.0, 0.0, 0.0, 0.0, 0.0, 0.0, 0.0, 1.708991254914883E9, 0.0, 2024-02-26 18:47:34.914
114.0, 187500.0, 187500.0, 30862.4840810876, -183470.2039921527, 187500.0, -183202.72066625603, -183291.94883012163, -183270.3570449778, 0.068, -0.004, 0.976, 192.0, 0.0, 0.0, 0.0, 0.0, 0.0, 0.0, 0.0, 0.0, 0.0, 1.708991254918892E9, 0.0, 2024-02-26 18:47:34.918
115.0, 187500.0, 187500.0, 29979.746637314158, -183296.62034471278, 187500.0, -183110.43031340008, -183138.25823524693, -183116.5099878919, 0.068, -0.004, 0.976, 192.0, 0.0, 0.0, 0.0, 0.0, 0.0, 0.0, 0.0, 0.0, 0.0, 1.708991254922913E9, 0.0, 2024-02-26 18:47:34.922
116.0, 187500.0, 187500.0, 29825.67606278373, -183233.25314918198, 187500.0, -183090.11257769022, -183121.60618562772, -183097.15337719364, 0.068, -0.004, 0.976, 192.0, 0.0, 0.0, 0.0, 0.0, 0.0, 0.0, 0.0, 0.0, 0.0, 1.708991254926889E9, 0.0, 2024-02-26 18:47:34.926
117.0, 187500.0, 187500.0, 30565.742321698945, -183352.18678142867, 187500.0, -183172.8363839193, -183238.81873355136, -183217.40576236317, 0.064, -0.002, 0.978, 192.0, 2.0, 0.0, 255.0, 240.0, 30.0, 144.0, 0.0, 0.0, 0.0, 1.708991254930882E9, 0.0, 2024-02-26 18:47:34.930
118.0, 187500.0, 187500.0, 30945.230239061148, -183423.26532879655, 187500.0, -183237.12000097276, -183319.95556592412, -183298.34142903585, 0.064, -0.002, 0.978, 192.0, 0.0, 0.0, 0.0, 0.0, 0.0, 0.0, 0.0, 0.0, 0.0, 1.708991254933881E9, 0.0, 2024-02-26 18:47:34.933
119.0, 187500.0, 187500.0, 29871.92182206176, -183216.33287862933, 187500.0, -183107.99397325446, -183150.35052899725, -183128.60228164223, 0.064, -0.002, 0.978, 192.0, 0.0, 0.0, 0.0, 0.0, 0.0, 0.0, 0.0, 0.0, 0.0, 1.70899125493889E9, 0.0, 2024-02-26 18:47:34.938
120.0, 187500.0, 187500.0, 29551.397806572655, -183128.8705025757, 187500.0, -183077.57324905077, -183108.97745001048, -183085.15049042113, 0.064, -0.002, 0.978, 192.0, 0.0, 0.0, 0.0, 0.0, 0.0, 0.0, 0.0, 0.0, 0.0, 1.708991254942886E9, 0.0, 2024-02-26 18:47:34.942
121.0, 187500.0, 187500.0, 30283.573899695148, -183208.8897477257, 187500.0, -183120.33213619379, -183187.61088700427, -183167.04728210537, 0.064, -0.002, 0.978, 192.0, 0.0, 0.0, 0.0, 0.0, 0.0, 0.0, 0.0, 0.0, 0.0, 1.708991254946898E9, 0.0, 2024-02-26 18:47:34.946
122.0, 187500.0, 187500.0, 31117.316319622558, -183293.28993478895, 187500.0, -183198.2950208539, -183282.42698698366, -183261.19282975112, 0.064, -0.002, 0.978, 192.0, 0.0, 0.0, 0.0, 0.0, 0.0, 0.0, 0.0, 0.0, 0.0, 1.708991254950888E9, 0.0, 2024-02-26 18:47:34.950
123.0, 187500.0, 187500.0, 30285.362039251573, -183016.28476575433, 187500.0, -183101.7131330625, -183179.0725206223, -183136.69361313505, 0.064, -0.002, 0.978, 192.0, 0.0, 0.0, 0.0, 0.0, 0.0, 0.0, 0.0, 0.0, 0.0, 1.708991254954928E9, 0.0, 2024-02-26 18:47:34.954
124.0, 187500.0, 187500.0, 29803.65959449525, -182847.03735673873, 187500.0, -183076.7685862504, -183121.58383388328, -183084.83756599875, 0.064, -0.002, 0.978, 192.0, 0.0, 0.0, 0.0, 0.0, 0.0, 0.0, 0.0, 0.0, 0.0, 1.708991254958898E9, 0.0, 2024-02-26 18:47:34.958
125.0, 187500.0, 187500.0, 30277.248356014297, -183160.65468319115, 187500.0, -183101.0202289844, -183141.61099691523, -183115.05712450232, 0.064, -0.002, 0.978, 192.0, 0.0, 0.0, 0.0, 0.0, 0.0, 0.0, 0.0, 0.0, 0.0, 1.708991254961935E9, 0.0, 2024-02-26 18:47:34.961
126.0, 187500.0, 187500.0, 31207.863236411005, -183681.91971563338, 187500.0, -183188.21438410456, -183262.9139140742, -183236.22593119455, 0.064, -0.002, 0.978, 192.0, 0.0, 0.0, 0.0, 0.0, 0.0, 0.0, 0.0, 0.0, 0.0, 1.708991254965954E9, 0.0, 2024-02-26 18:47:34.965
127.0, 187500.0, 187500.0, 30517.976643797952, -183691.9109454049, 187500.0, -183117.13583673668, -183168.54484898387, -183141.16396202613, 0.068, -0.006, 0.982, 192.0, 2.0, 32.0, 255.0, 208.0, 30.0, 176.0, 0.0, 0.0, 0.0, 1.708991254971053E9, 0.0, 2024-02-26 18:47:34.971
128.0, 187500.0, 187500.0, 29811.974443432624, -183565.08714736547, 187500.0, -183092.68302830256, -183102.47309237398, -183078.98140895145, 0.068, -0.006, 0.982, 192.0, 0.0, 0.0, 0.0, 0.0, 0.0, 0.0, 0.0, 0.0, 0.0, 1.708991254974954E9, 0.0, 2024-02-26 18:47:34.974
129.0, 187500.0, 187500.0, 30051.316923060054, -183584.60022027497, 187500.0, -183102.49544411845, -183136.89477883515, -183121.44972341656, 0.068, -0.006, 0.982, 192.0, 0.0, 0.0, 0.0, 0.0, 0.0, 0.0, 0.0, 0.0, 0.0, 1.708991254978992E9, 0.0, 2024-02-26 18:47:34.978
130.0, 187500.0, 187500.0, 30994.337021629457, -183758.5861991151, 187500.0, -183250.1510679902, -183312.08775187586, -183297.35795227982, 0.068, -0.006, 0.982, 192.0, 0.0, 0.0, 0.0, 0.0, 0.0, 0.0, 0.0, 0.0, 0.0, 1.708991254981961E9, 0.0, 2024-02-26 18:47:34.981
131.0, 187500.0, 187500.0, 30401.03231680779, -183655.4999536872, 187500.0, -183141.05220330384, -183216.46698909605, -183199.72553249903, 0.068, -0.006, 0.982, 192.0, 0.0, 0.0, 0.0, 0.0, 0.0, 0.0, 0.0, 0.0, 0.0, 1.708991254985957E9, 0.0, 2024-02-26 18:47:34.985
132.0, 187500.0, 187500.0, 29382.23980453489, -183533.7723533836, 187500.0, -183057.74725171892, -183100.75200805094, -183082.78120550886, 0.068, -0.006, 0.982, 192.0, 0.0, 0.0, 0.0, 0.0, 0.0, 0.0, 0.0, 0.0, 0.0, 1.708991254989965E9, 0.0, 2024-02-26 18:47:34.989
133.0, 187500.0, 187500.0, 29375.5342811983, -183554.29125479356, 187500.0, -183071.6723885146, -183129.8763310762, -183110.89970003365, 0.068, -0.006, 0.982, 192.0, 0.0, 0.0, 0.0, 0.0, 0.0, 0.0, 0.0, 0.0, 0.0, 1.708991254993966E9, 0.0, 2024-02-26 18:47:34.993
134.0, 187500.0, 187500.0, 30390.459941680427, -183696.58245999605, 187500.0, -183195.32223884133, -183283.49987071753, -183264.5679431639, 0.068, -0.006, 0.982, 192.0, 0.0, 0.0, 0.0, 0.0, 0.0, 0.0, 0.0, 0.0, 0.0, 1.70899125499898E9, 0.0, 2024-02-26 18:47:34.998
135.0, 187500.0, 187500.0, 30363.05670297822, -183649.50968617317, 187500.0, -183158.35245351226, -183243.4008411647, -183223.93247174413, 0.068, -0.006, 0.982, 192.0, 0.0, 0.0, 0.0, 0.0, 0.0, 0.0, 0.0, 0.0, 0.0, 1.708991255002986E9, 0.0, 2024-02-26 18:47:35.002
136.0, 187500.0, 187500.0, 29423.858752710672, -183490.0076377401, 187500.0, -183092.05717945783, -183103.90360401914, -183088.21267941152, 0.068, -0.006, 0.982, 192.0, 0.0, 0.0, 0.0, 0.0, 0.0, 0.0, 0.0, 0.0, 0.0, 1.708991255006989E9, 0.0, 2024-02-26 18:47:35.006
137.0, 187500.0, 187500.0, 29268.93881189094, -183462.71615776018, 187500.0, -183063.7151674885, -183093.04065621385, -183080.8142519968, 0.068, -0.004, 0.984, 192.0, 2.0, 32.0, 255.0, 224.0, 30.0, 192.0, 0.0, 0.0, 0.0, 1.708991255009994E9, 0.0, 2024-02-26 18:47:35.009
138.0, 187500.0, 187500.0, 30061.174042364844, -183585.583697031, 187500.0, -183161.16877331364, -183222.25609090997, -183207.72745701403, 0.068, -0.004, 0.984, 192.0, 0.0, 0.0, 0.0, 0.0, 0.0, 0.0, 0.0, 0.0, 0.0, 1.708991255013991E9, 0.0, 2024-02-26 18:47:35.013
139.0, 187500.0, 187500.0, 30268.195899509898, -183616.6526218239, 187500.0, -183192.0365324064, -183270.1558792777, -183252.16272499118, 0.068, -0.004, 0.984, 192.0, 0.0, 0.0, 0.0, 0.0, 0.0, 0.0, 0.0, 0.0, 0.0, 1.708991255017985E9, 0.0, 2024-02-26 18:47:35.017
140.0, 187500.0, 187500.0, 29292.408143569013, -183409.3401920009, 187500.0, -183079.78607175185, -183163.44865124807, -183116.75585708092, 0.068, -0.004, 0.984, 192.0, 0.0, 0.0, 0.0, 0.0, 0.0, 0.0, 0.0, 0.0, 0.0, 1.708991255021994E9, 0.0, 2024-02-26 18:47:35.021
141.0, 187500.0, 187500.0, 29152.173298856414, -183337.21111264362, 187500.0, -183054.215676095, -183108.4186563991, -183074.19813563803, 0.068, -0.004, 0.984, 192.0, 0.0, 0.0, 0.0, 0.0, 0.0, 0.0, 0.0, 0.0, 0.0, 1.708991255027027E9, 0.0, 2024-02-26 18:47:35.027
142.0, 187500.0, 187500.0, 29945.570820041994, -183449.28275934255, 187500.0, -183130.25631073193, -183211.37079136024, -183181.5759160013, 0.068, -0.004, 0.984, 192.0, 0.0, 0.0, 0.0, 0.0, 0.0, 0.0, 0.0, 0.0, 0.0, 1.708991255031019E9, 0.0, 2024-02-26 18:47:35.031
143.0, 187500.0, 187500.0, 30442.718320216933, -183533.5264841946, 187500.0, -183202.72066625603, -183304.77873143897, -183274.73798689104, 0.068, -0.004, 0.984, 192.0, 0.0, 0.0, 0.0, 0.0, 0.0, 0.0, 0.0, 0.0, 0.0, 1.708991255035013E9, 0.0, 2024-02-26 18:47:35.035
144.0, 187500.0, 187500.0, 29380.205795789458, -183368.88353453678, 187500.0, -183098.62859232767, -183149.76938364143, -183120.9132815496, 0.068, -0.004, 0.984, 192.0, 0.0, 0.0, 0.0, 0.0, 0.0, 0.0, 0.0, 0.0, 0.0, 1.708991255038035E9, 0.0, 2024-02-26 18:47:35.038
145.0, 187500.0, 187500.0, 28940.43522363129, -183287.12085331927, 187500.0, -183074.0640251713, -183084.79286250984, -183065.9726936785, 0.068, -0.004, 0.984, 192.0, 0.0, 0.0, 0.0, 0.0, 0.0, 0.0, 0.0, 0.0, 0.0, 1.708991255042043E9, 0.0, 2024-02-26 18:47:35.042
146.0, 187500.0, 187500.0, 29546.972161170503, -183365.03903449047, 187500.0, -183114.02894425738, -183168.36603502824, -183148.33887199627, 0.068, -0.004, 0.984, 192.0, 0.0, 0.0, 0.0, 0.0, 0.0, 0.0, 0.0, 0.0, 0.0, 1.708991255046036E9, 0.0, 2024-02-26 18:47:35.046
147.0, 187500.0, 187500.0, 30332.56892354118, -183454.1554396338, 187500.0, -183194.6963899966, -183266.64665539822, -183245.61366386578, 0.064, -0.004, 0.978, 192.0, 2.0, 0.0, 255.0, 224.0, 30.0, 144.0, 0.0, 0.0, 0.0, 1.708991255050045E9, 0.0, 2024-02-26 18:47:35.050
148.0, 187500.0, 187500.0, 29399.00361287637, -183303.05764711593, 187500.0, -183104.97648775298, -183138.6829183916, -183114.5206826354, 0.064, -0.004, 0.978, 192.0, 0.0, 0.0, 0.0, 0.0, 0.0, 0.0, 0.0, 0.0, 0.0, 1.708991255055041E9, 0.0, 2024-02-26 18:47:35.055
149.0, 187500.0, 187500.0, 28656.56806904889, -183210.76729425995, 187500.0, -183079.47314732947, -183114.63244135768, -183081.6189147972, 0.064, -0.004, 0.978, 192.0, 0.0, 0.0, 0.0, 0.0, 0.0, 0.0, 0.0, 0.0, 0.0, 1.708991255059032E9, 0.0, 2024-02-26 18:47:35.059
150.0, 187500.0, 187500.0, 28902.884292946375, -183285.5115277185, 187500.0, -183118.8792728042, -183180.16775610065, -183155.44672673306, 0.064, -0.004, 0.978, 192.0, 0.0, 0.0, 0.0, 0.0, 0.0, 0.0, 0.0, 0.0, 0.0, 1.708991255063038E9, 0.0, 2024-02-26 18:47:35.063
151.0, 187500.0, 187500.0, 29809.761620731548, -183439.2468260821, 187500.0, -183256.52131515997, -183342.66493829072, -183317.5192257785, 0.064, -0.004, 0.978, 192.0, 0.0, 0.0, 0.0, 0.0, 0.0, 0.0, 0.0, 0.0, 0.0, 1.708991255066072E9, 0.0, 2024-02-26 18:47:35.066
152.0, 187500.0, 187500.0, 29241.714387144377, -183340.7873917565, 187500.0, -183156.47490697802, -183250.1510679902, -183223.19486417712, 0.064, -0.004, 0.978, 192.0, 0.0, 0.0, 0.0, 0.0, 0.0, 0.0, 0.0, 0.0, 0.0, 1.708991255070061E9, 0.0, 2024-02-26 18:47:35.070
153.0, 187500.0, 187500.0, 28574.648925620193, -183215.21529140655, 187500.0, -183061.5023447874, -183129.20577874253, -183100.97552549548, 0.064, -0.004, 0.978, 192.0, 0.0, 0.0, 0.0, 0.0, 0.0, 0.0, 0.0, 0.0, 0.0, 1.708991255074068E9, 0.0, 2024-02-26 18:47:35.074
154.0, 187500.0, 187500.0, 28779.83793971991, -183248.11705924477, 187500.0, -183077.0144554394, -183170.69061645158, -183141.25336900394, 0.064, -0.004, 0.978, 192.0, 0.0, 0.0, 0.0, 0.0, 0.0, 0.0, 0.0, 0.0, 0.0, 1.708991255078074E9, 0.0, 2024-02-26 18:47:35.078
155.0, 187500.0, 187500.0, 29707.435334615155, -183415.66573568174, 187500.0, -183229.94509100262, -183349.7280895386, -183320.24613860206, 0.064, -0.004, 0.978, 192.0, 0.0, 0.0, 0.0, 0.0, 0.0, 0.0, 0.0, 0.0, 0.0, 1.708991255082065E9, 0.0, 2024-02-26 18:47:35.082
156.0, 187500.0, 187500.0, 29295.93971919295, -183331.9808044411, 187500.0, -183169.2824565509, -183272.0557775564, -183241.92562603066, 0.064, -0.004, 0.978, 192.0, 0.0, 0.0, 0.0, 0.0, 0.0, 0.0, 0.0, 0.0, 0.0, 1.708991255087072E9, 0.0, 2024-02-26 18:47:35.087
157.0, 187500.0, 187500.0, 28469.43926446906, -183180.01129388946, 187500.0, -183073.6169902822, -183124.6236711292, -183093.77826378087, 0.064, -0.004, 0.98, 192.0, 2.0, 0.0, 255.0, 224.0, 30.0, 160.0, 0.0, 0.0, 0.0, 1.708991255091077E9, 0.0, 2024-02-26 18:47:35.091
158.0, 187500.0, 187500.0, 28606.74603065801, -183174.75863394246, 187500.0, -183056.62966449617, -183127.10471476373, -183095.83462427076, 0.064, -0.004, 0.98, 192.0, 0.0, 0.0, 0.0, 0.0, 0.0, 0.0, 0.0, 0.0, 0.0, 1.708991255094072E9, 0.0, 2024-02-26 18:47:35.094
159.0, 187500.0, 187500.0, 29603.969109531536, -183309.7184669636, 187500.0, -183173.46223276405, -183272.99455082353, -183241.0539079969, 0.064, -0.004, 0.98, 192.0, 0.0, 0.0, 0.0, 0.0, 0.0, 0.0, 0.0, 0.0, 0.0, 1.708991255098065E9, 0.0, 2024-02-26 18:47:35.098
160.0, 187500.0, 187500.0, 29501.843989115237, -183265.5514199199, 187500.0, -183163.06867159234, -183241.18801846364, -183209.98498320402, 0.064, -0.004, 0.98, 192.0, 0.0, 0.0, 0.0, 0.0, 0.0, 0.0, 0.0, 0.0, 0.0, 1.708991255102081E9, 0.0, 2024-02-26 18:47:35.102
161.0, 187500.0, 187500.0, 28476.167139550107, -183002.4937394254, 187500.0, -183087.72094103348, -183100.10380746174, -183078.9143537181, 0.064, -0.004, 0.98, 192.0, 0.0, 0.0, 0.0, 0.0, 0.0, 0.0, 0.0, 0.0, 0.0, 1.708991255106068E9, 0.0, 2024-02-26 18:47:35.106
162.0, 187500.0, 187500.0, 28420.37718538966, -182920.39578204107, 187500.0, -183052.51694351638, -183077.4167868396, -183056.5179057739, 0.064, -0.004, 0.98, 192.0, 0.0, 0.0, 0.0, 0.0, 0.0, 0.0, 0.0, 0.0, 0.0, 1.708991255110078E9, 0.0, 2024-02-26 18:47:35.110
163.0, 187500.0, 187500.0, 29413.465191538955, -183336.54056030998, 187500.0, -183132.1785607551, -183186.51565152596, -183165.25914254895, 0.064, -0.004, 0.98, 192.0, 0.0, 0.0, 0.0, 0.0, 0.0, 0.0, 0.0, 0.0, 0.0, 1.70899125511509E9, 0.0, 2024-02-26 18:47:35.115
164.0, 187500.0, 187500.0, 29800.552702015964, -183727.33846036656, 187500.0, -183168.58955247278, -183236.09182072783, -183215.05882919536, 0.064, -0.004, 0.98, 192.0, 0.0, 0.0, 0.0, 0.0, 0.0, 0.0, 0.0, 0.0, 0.0, 1.708991255118143E9, 0.0, 2024-02-26 18:47:35.118
165.0, 187500.0, 187500.0, 28729.07712806191, -183612.20462467728, 187500.0, -183088.74912127844, -183119.8627495602, -183096.92985974907, 0.064, -0.004, 0.98, 192.0, 0.0, 0.0, 0.0, 0.0, 0.0, 0.0, 0.0, 0.0, 0.0, 1.708991255122124E9, 0.0, 2024-02-26 18:47:35.122
166.0, 187500.0, 187500.0, 28293.26281467233, -183569.33397881198, 187500.0, -183059.13305987514, -183093.10771144723, -183072.05236817032, 0.064, -0.004, 0.98, 192.0, 0.0, 0.0, 0.0, 0.0, 0.0, 0.0, 0.0, 0.0, 0.0, 1.708991255126126E9, 0.0, 2024-02-26 18:47:35.126
167.0, 187500.0, 187500.0, 28865.75804540611, -183691.48626226024, 187500.0, -183149.65762491914, -183217.51752108545, -183197.51270979794, 0.066, -0.008, 0.984, 192.0, 2.0, 16.0, 255.0, 192.0, 30.0, 192.0, 0.0, 0.0, 0.0, 1.708991255132125E9, 0.0, 2024-02-26 18:47:35.132
168.0, 187500.0, 187500.0, 29441.29311338581, -183767.68335910837, 187500.0, -183219.97621297554, -183304.0634756164, -183283.47751897306, 0.066, -0.008, 0.984, 192.0, 0.0, 0.0, 0.0, 0.0, 0.0, 0.0, 0.0, 0.0, 0.0, 1.708991255135121E9, 0.0, 2024-02-26 18:47:35.135
169.0, 187500.0, 187500.0, 28624.89564715572, -183592.31157211206, 187500.0, -183096.0134382264, -183141.49923819295, -183117.80638907032, 0.066, -0.008, 0.984, 192.0, 0.0, 0.0, 0.0, 0.0, 0.0, 0.0, 0.0, 0.0, 0.0, 1.708991255138136E9, 0.0, 2024-02-26 18:47:35.138
170.0, 187500.0, 187500.0, 28495.97078513751, -183515.15335025234, 187500.0, -183064.8551064557, -183090.89488874614, -183065.9056384451, 0.066, -0.008, 0.984, 192.0, 0.0, 0.0, 0.0, 0.0, 0.0, 0.0, 0.0, 0.0, 0.0, 1.708991255143126E9, 0.0, 2024-02-26 18:47:35.143
171.0, 187500.0, 187500.0, 29366.839452605185, -183574.54193527007, 187500.0, -183096.97456323798, -183151.55752319784, -183128.2670054754, 0.066, -0.008, 0.984, 192.0, 0.0, 0.0, 0.0, 0.0, 0.0, 0.0, 0.0, 0.0, 0.0, 1.708991255146136E9, 0.0, 2024-02-26 18:47:35.146
172.0, 187500.0, 187500.0, 30314.575769254658, -183688.44642501432, 187500.0, -183195.97043943053, -183274.1121380463, -183251.8945040577, 0.066, -0.008, 0.984, 192.0, 0.0, 0.0, 0.0, 0.0, 0.0, 0.0, 0.0, 0.0, 0.0, 1.708991255150129E9, 0.0, 2024-02-26 18:47:35.150
173.0, 187500.0, 187500.0, 29272.73860844834, -183563.2766560646, 187500.0, -183108.5080633769, -183157.07840407832, -183136.51479917942, 0.066, -0.008, 0.984, 192.0, 0.0, 0.0, 0.0, 0.0, 0.0, 0.0, 0.0, 0.0, 0.0, 1.708991255154135E9, 0.0, 2024-02-26 18:47:35.154
174.0, 187500.0, 187500.0, 28373.505577266882, -183468.61701829638, 187500.0, -183065.9726936785, -183079.42844384056, -183060.42946105357, 0.066, -0.008, 0.984, 192.0, 0.0, 0.0, 0.0, 0.0, 0.0, 0.0, 0.0, 0.0, 0.0, 1.708991255158129E9, 0.0, 2024-02-26 18:47:35.158
175.0, 187500.0, 187500.0, 28709.139372007772, -183522.35061196695, 187500.0, -183092.28069690237, -183140.0240230589, -183119.59452862677, 0.066, -0.008, 0.984, 192.0, 0.0, 0.0, 0.0, 0.0, 0.0, 0.0, 0.0, 0.0, 0.0, 1.708991255162154E9, 0.0, 2024-02-26 18:47:35.162
176.0, 187500.0, 187500.0, 29991.056620008545, -183629.75074407467, 187500.0, -183186.2921340814, -183257.16951574918, -183236.22593119455, 0.066, -0.008, 0.984, 192.0, 0.0, 0.0, 0.0, 0.0, 0.0, 0.0, 0.0, 0.0, 0.0, 1.70899125516615E9, 0.0, 2024-02-26 18:47:35.166
177.0, 187500.0, 187500.0, 29847.178440949734, -183506.27970770356, 187500.0, -183118.00755477042, -183177.95493339957, -183146.66249116213, 0.068, -0.002, 0.978, 192.0, 2.0, 32.0, 255.0, 240.0, 30.0, 144.0, 0.0, 0.0, 0.0, 1.708991255171161E9, 0.0, 2024-02-26 18:47:35.171
178.0, 187500.0, 187500.0, 29303.56166405221, -183346.15181042574, 187500.0, -183080.90365897462, -183131.46330493252, -183094.73938879246, 0.068, -0.002, 0.978, 192.0, 0.0, 0.0, 0.0, 0.0, 0.0, 0.0, 0.0, 0.0, 0.0, 1.708991255174151E9, 0.0, 2024-02-26 18:47:35.174
179.0, 187500.0, 187500.0, 29396.43316226401, -183340.65328128973, 187500.0, -183084.90462123213, -183116.24176695847, -183095.47699635947, 0.068, -0.002, 0.978, 192.0, 0.0, 0.0, 0.0, 0.0, 0.0, 0.0, 0.0, 0.0, 0.0, 1.708991255178147E9, 0.0, 2024-02-26 18:47:35.178
180.0, 187500.0, 187500.0, 30159.342904012552, -183500.22238495617, 187500.0, -183209.91792797064, -183275.78851888044, -183255.87311457077, 0.068, -0.002, 0.978, 192.0, 0.0, 0.0, 0.0, 0.0, 0.0, 0.0, 0.0, 0.0, 0.0, 1.708991255182148E9, 0.0, 2024-02-26 18:47:35.182
181.0, 187500.0, 187500.0, 29709.089363704847, -183442.89016042833, 187500.0, -183156.72077616703, -183228.24635842402, -183206.3416488578, 0.068, -0.002, 0.978, 192.0, 0.0, 0.0, 0.0, 0.0, 0.0, 0.0, 0.0, 0.0, 0.0, 1.708991255186151E9, 0.0, 2024-02-26 18:47:35.186
182.0, 187500.0, 187500.0, 28854.828042367466, -183283.27635327296, 187500.0, -183089.21850791198, -183106.18348195357, -183084.1670136651, 0.068, -0.002, 0.978, 192.0, 0.0, 0.0, 0.0, 0.0, 0.0, 0.0, 0.0, 0.0, 0.0, 1.708991255190145E9, 0.0, 2024-02-26 18:47:35.190
183.0, 187500.0, 187500.0, 29050.65167554041, -183245.3901464212, 187500.0, -183059.24481859742, -183089.17380442307, -183068.3643303352, 0.068, -0.002, 0.978, 192.0, 0.0, 0.0, 0.0, 0.0, 0.0, 0.0, 0.0, 0.0, 0.0, 1.708991255194166E9, 0.0, 2024-02-26 18:47:35.194
184.0, 187500.0, 187500.0, 30159.275848779187, -183370.87283979333, 187500.0, -183156.16198255564, -183216.13171292923, -183197.71387549804, 0.068, -0.002, 0.978, 192.0, 0.0, 0.0, 0.0, 0.0, 0.0, 0.0, 0.0, 0.0, 0.0, 1.708991255199183E9, 0.0, 2024-02-26 18:47:35.199
185.0, 187500.0, 187500.0, 30230.153230446966, -183359.27228442102, 187500.0, -183158.03952908987, -183218.3445356303, -183198.00444817598, 0.068, -0.002, 0.978, 192.0, 0.0, 0.0, 0.0, 0.0, 0.0, 0.0, 0.0, 0.0, 0.0, 1.708991255202194E9, 0.0, 2024-02-26 18:47:35.202
186.0, 187500.0, 187500.0, 29186.4385231064, -183185.0404363919, 187500.0, -183085.93280147706, -183110.94440352256, -183082.13300491965, 0.068, -0.002, 0.978, 192.0, 0.0, 0.0, 0.0, 0.0, 0.0, 0.0, 0.0, 0.0, 0.0, 1.708991255206193E9, 0.0, 2024-02-26 18:47:35.206
187.0, 187500.0, 187500.0, 29020.834448437032, -183144.51672369443, 187500.0, -183049.0971266147, -183077.4614903285, -183061.59175176523, 0.058, -0.006, 0.98, 192.0, 1.0, 208.0, 255.0, 208.0, 30.0, 160.0, 0.0, 0.0, 0.0, 1.708991255210196E9, 0.0, 2024-02-26 18:47:35.210
188.0, 187500.0, 187500.0, 29884.125874534355, -183264.2103152526, 187500.0, -183139.26406374743, -183198.3397243428, -183183.1852416021, 0.058, -0.006, 0.98, 192.0, 0.0, 0.0, 0.0, 0.0, 0.0, 0.0, 0.0, 0.0, 0.0, 1.708991255214207E9, 0.0, 2024-02-26 18:47:35.214
189.0, 187500.0, 187500.0, 30275.437864713418, -183311.03721988646, 187500.0, -183178.1784508441, -183254.3531959478, -183237.85760853978, 0.058, -0.006, 0.98, 192.0, 0.0, 0.0, 0.0, 0.0, 0.0, 0.0, 0.0, 0.0, 0.0, 1.708991255218199E9, 0.0, 2024-02-26 18:47:35.218
190.0, 187500.0, 187500.0, 29230.672625383453, -183149.25529351895, 187500.0, -183087.02803695537, -183121.33796469428, -183101.0649324733, 0.058, -0.006, 0.98, 192.0, 0.0, 0.0, 0.0, 0.0, 0.0, 0.0, 0.0, 0.0, 0.0, 1.7089912552242E9, 0.0, 2024-02-26 18:47:35.224
191.0, 187500.0, 187500.0, 28887.841568927954, -183079.20492639602, 187500.0, -183068.45373731302, -183086.73746427745, -183074.84633622723, 0.058, -0.006, 0.98, 192.0, 0.0, 0.0, 0.0, 0.0, 0.0, 0.0, 0.0, 0.0, 0.0, 1.708991255227211E9, 0.0, 2024-02-26 18:47:35.227
192.0, 187500.0, 187500.0, 29632.221714523046, -183208.06273318085, 187500.0, -183160.90055238016, -183214.81296000635, -183207.03455293592, 0.058, -0.006, 0.98, 192.0, 0.0, 0.0, 0.0, 0.0, 0.0, 0.0, 0.0, 0.0, 0.0, 1.708991255231215E9, 0.0, 2024-02-26 18:47:35.231
193.0, 187500.0, 187500.0, 30383.687363110468, -183285.33271376285, 187500.0, -183224.40185837768, -183299.68253370316, -183291.43473999915, 0.058, -0.006, 0.98, 192.0, 0.0, 0.0, 0.0, 0.0, 0.0, 0.0, 0.0, 0.0, 0.0, 1.708991255234191E9, 0.0, 2024-02-26 18:47:35.234
