%OpenBCI Raw EXG Data
%Number of channels = 8
%Sample Rate = 250 Hz
%Board = OpenBCI_GUI$BoardCytonSerial
Sample Index, EXG Channel 0, EXG Channel 1, EXG Channel 2, EXG Channel 3, EXG Channel 4, EXG Channel 5, EXG Channel 6, EXG Channel 7, Accel Channel 0, Accel Channel 1, Accel Channel 2, Other, Other, Other, Other, Other, Other, Other, Analog Channel 0, Analog Channel 1, Analog Channel 2, Timestamp, Other, Timestamp (Formatted)
47.0, 187500.0, 187500.0, 33853.77333805244, -183804.76490315972, 187500.0, -183126.3224037078, -183560.39328102986, -183402.12057854183, 0.0, 0.0, 0.0, 192.0, 0.0, 0.0, 0.0, 0.0, 0.0, 0.0, 0.0, 0.0, 0.0, 1.708991298987805E9, 0.0, 2024-02-26 18:48:18.987
48.0, 187500.0, 187500.0, 32504.219711329904, -183723.87393997598, 187500.0, -183035.26139679688, -183485.67139931576, -183326.75049623853, 0.0, 0.0, 0.0, 192.0, 0.0, 0.0, 0.0, 0.0, 0.0, 0.0, 0.0, 0.0, 0.0, 1.708991298987834E9, 0.0, 2024-02-26 18:48:18.987
49.0, 187500.0, 187500.0, 32066.01376128361, -183794.30428675466, 187500.0, -183094.62763007017, -183566.29414156606, -183406.4344652217, 0.0, 0.0, 0.0, 192.0, 0.0, 0.0, 0.0, 0.0, 0.0, 0.0, 0.0, 0.0, 0.0, 1.708991298987852E9, 0.0, 2024-02-26 18:48:18.987
0.0, 0.0, 0.0, 0.0, 0.0, 0.0, 0.0, 0.0, 0.0, 0.064, -0.006, 0.986, 192.0, 2.0, 0.0, 255.0, 208.0, 30.0, 208.0, 0.0, 0.0, 0.0, 1.708991299053106E9, 0.0, 2024-02-26 18:48:19.053
1.0, 187500.0, 187500.0, 38228.43441110068, -183101.2213946845, 187500.0, -182923.435619287, -185477.4353477282, -183979.01910293332, 0.064, -0.006, 0.986, 192.0, 0.0, 0.0, 0.0, 0.0, 0.0, 0.0, 0.0, 0.0, 0.0, 1.708991299070101E9, 0.0, 2024-02-26 18:48:19.070
2.0, 187500.0, 187500.0, 37812.021411898306, -183024.51020771387, 187500.0, -182863.0635575132, -185406.24504163803, -183907.33705846514, 0.064, -0.006, 0.986, 192.0, 0.0, 0.0, 0.0, 0.0, 0.0, 0.0, 0.0, 0.0, 0.0, 1.708991299074103E9, 0.0, 2024-02-26 18:48:19.074
3.0, 187500.0, 187500.0, 36890.07900835026, -182874.19472625194, 187500.0, -182799.91987942695, -185260.6234265117, -183761.134297983, 0.064, -0.006, 0.986, 192.0, 0.0, 0.0, 0.0, 0.0, 0.0, 0.0, 0.0, 0.0, 0.0, 1.708991299077095E9, 0.0, 2024-02-26 18:48:19.077
4.0, 187500.0, 187500.0, 36920.79030523185, -182889.23745027036, 187500.0, -182793.41552179045, -185285.18799366808, -183784.76009187225, 0.064, -0.006, 0.986, 192.0, 0.0, 0.0, 0.0, 0.0, 0.0, 0.0, 0.0, 0.0, 0.0, 1.708991299082095E9, 0.0, 2024-02-26 18:48:19.082
5.0, 187500.0, 187500.0, 37875.142738240094, -183040.96109163298, 187500.0, -182924.66496523202, -185448.75805959202, -183947.5701984847, 0.064, -0.006, 0.986, 192.0, 0.0, 0.0, 0.0, 0.0, 0.0, 0.0, 0.0, 0.0, 0.0, 1.708991299085095E9, 0.0, 2024-02-26 18:48:19.085
6.0, 187500.0, 187500.0, 37788.4179697535, -183024.28669026933, 187500.0, -182906.0236103563, -185440.6220246103, -183938.1154105801, 0.064, -0.006, 0.986, 192.0, 0.0, 0.0, 0.0, 0.0, 0.0, 0.0, 0.0, 0.0, 0.0, 1.708991299089099E9, 0.0, 2024-02-26 18:48:19.089
7.0, 187500.0, 187500.0, 36810.506798089365, -182868.24916222683, 187500.0, -182796.52241426974, -185289.18895592558, -183785.4753476948, 0.064, -0.006, 0.986, 192.0, 0.0, 0.0, 0.0, 0.0, 0.0, 0.0, 0.0, 0.0, 0.0, 1.708991299093122E9, 0.0, 2024-02-26 18:48:19.093
8.0, 187500.0, 187500.0, 36749.35242525964, -182851.5077056298, 187500.0, -182775.60118145958, -185280.1364994212, -183775.28295222318, 0.058, -0.004, 0.988, 192.0, 1.0, 208.0, 255.0, 224.0, 30.0, 224.0, 0.0, 0.0, 0.0, 1.70899129909714E9, 0.0, 2024-02-26 18:48:19.097
9.0, 187500.0, 187500.0, 37709.71747752637, -182981.30428568178, 187500.0, -182885.16943277948, -185421.51128310102, -183915.67425914697, 0.058, -0.004, 0.988, 192.0, 0.0, 0.0, 0.0, 0.0, 0.0, 0.0, 0.0, 0.0, 0.0, 1.708991299101151E9, 0.0, 2024-02-26 18:48:19.101
10.0, 187500.0, 187500.0, 38041.12679256521, -182988.07686425172, 187500.0, -182902.4696829879, -185440.44321065466, -183933.89093087806, 0.058, -0.004, 0.988, 192.0, 0.0, 0.0, 0.0, 0.0, 0.0, 0.0, 0.0, 0.0, 0.0, 1.708991299105146E9, 0.0, 2024-02-26 18:48:19.105
11.0, 187500.0, 187500.0, 37076.023170473956, -182688.74230250626, 187500.0, -182821.6010715486, -185256.55540902083, -183749.35492865503, 0.058, -0.004, 0.988, 192.0, 0.0, 0.0, 0.0, 0.0, 0.0, 0.0, 0.0, 0.0, 0.0, 1.708991299110155E9, 0.0, 2024-02-26 18:48:19.110
12.0, 187500.0, 187500.0, 36864.463909204474, -182620.100095284, 187500.0, -182781.3455797846, -185194.73048385748, -183686.23360231324, 0.058, -0.004, 0.988, 192.0, 0.0, 0.0, 0.0, 0.0, 0.0, 0.0, 0.0, 0.0, 0.0, 1.708991299113139E9, 0.0, 2024-02-26 18:48:19.113
13.0, 187500.0, 187500.0, 37633.319214978124, -183033.76382991837, 187500.0, -182833.156923432, -185294.66513331715, -183785.0283128057, 0.058, -0.004, 0.988, 192.0, 0.0, 0.0, 0.0, 0.0, 0.0, 0.0, 0.0, 0.0, 0.0, 1.708991299117153E9, 0.0, 2024-02-26 18:48:19.117
14.0, 187500.0, 187500.0, 38184.356771034814, -183459.07282341397, 187500.0, -182894.75833115084, -185369.8564016648, -183860.398395109, 0.058, -0.004, 0.988, 192.0, 0.0, 0.0, 0.0, 0.0, 0.0, 0.0, 0.0, 0.0, 0.0, 1.708991299121154E9, 0.0, 2024-02-26 18:48:19.121
15.0, 187500.0, 187500.0, 37193.325125375406, -183344.40837435823, 187500.0, -182819.65646978098, -185210.37670497617, -183699.42113154187, 0.058, -0.004, 0.988, 192.0, 0.0, 0.0, 0.0, 0.0, 0.0, 0.0, 0.0, 0.0, 0.0, 1.708991299125159E9, 0.0, 2024-02-26 18:48:19.125
16.0, 187500.0, 187500.0, 36798.973297950426, -183263.87503908577, 187500.0, -182783.71486469687, -185138.13586689663, -183625.1909882058, 0.058, -0.004, 0.988, 192.0, 0.0, 0.0, 0.0, 0.0, 0.0, 0.0, 0.0, 0.0, 0.0, 1.708991299131138E9, 0.0, 2024-02-26 18:48:19.131
17.0, 187500.0, 187500.0, 37428.46547704524, -183345.280092392, 187500.0, -182828.41835360747, -185230.33681277477, -183716.34140209455, 0.062, 0.0, 0.986, 192.0, 1.0, 240.0, 0.0, 0.0, 30.0, 208.0, 0.0, 0.0, 0.0, 1.708991299134139E9, 0.0, 2024-02-26 18:48:19.134
18.0, 187500.0, 187500.0, 38228.65792854523, -183459.3410443474, 187500.0, -182929.7388112234, -185355.99832010252, -183840.88532219952, 0.062, 0.0, 0.986, 192.0, 0.0, 0.0, 0.0, 0.0, 0.0, 0.0, 0.0, 0.0, 0.0, 1.708991299138133E9, 0.0, 2024-02-26 18:48:19.138
19.0, 187500.0, 187500.0, 37301.48521679464, -183323.04010665897, 187500.0, -182830.4970658418, -185225.26296678343, -183708.33947757955, 0.062, 0.0, 0.986, 192.0, 0.0, 0.0, 0.0, 0.0, 0.0, 0.0, 0.0, 0.0, 0.0, 1.708991299141137E9, 0.0, 2024-02-26 18:48:19.141
20.0, 187500.0, 187500.0, 36603.57434792213, -183229.18513169113, 187500.0, -182786.62059147604, -185137.8452942187, -183619.4465898808, 0.062, 0.0, 0.986, 192.0, 0.0, 0.0, 0.0, 0.0, 0.0, 0.0, 0.0, 0.0, 0.0, 1.708991299144145E9, 0.0, 2024-02-26 18:48:19.144
21.0, 187500.0, 187500.0, 36940.34808163024, -183294.27341154497, 187500.0, -182819.03062093625, -185213.68476315556, -183694.43669252834, 0.062, 0.0, 0.986, 192.0, 0.0, 0.0, 0.0, 0.0, 0.0, 0.0, 0.0, 0.0, 0.0, 1.708991299149188E9, 0.0, 2024-02-26 18:48:19.149
22.0, 187500.0, 187500.0, 37854.42267113002, -183436.78813419203, 187500.0, -182949.02836668832, -185368.29177955294, -183848.10493565857, 0.062, 0.0, 0.986, 192.0, 0.0, 0.0, 0.0, 0.0, 0.0, 0.0, 0.0, 0.0, 0.0, 1.708991299153185E9, 0.0, 2024-02-26 18:48:19.153
23.0, 187500.0, 187500.0, 37159.86456392581, -183348.6328540603, 187500.0, -182858.7720225778, -185286.01500821294, -183765.71640559632, 0.062, 0.0, 0.986, 192.0, 0.0, 0.0, 0.0, 0.0, 0.0, 0.0, 0.0, 0.0, 0.0, 1.708991299157227E9, 0.0, 2024-02-26 18:48:19.157
24.0, 187500.0, 187500.0, 36310.431219390775, -183248.11705924477, 187500.0, -182773.0307308472, -185191.1542047446, -183670.47562247227, 0.062, 0.0, 0.986, 192.0, 0.0, 0.0, 0.0, 0.0, 0.0, 0.0, 0.0, 0.0, 0.0, 1.708991299161197E9, 0.0, 2024-02-26 18:48:19.161
25.0, 187500.0, 187500.0, 36460.23261073024, -183273.32982699035, 187500.0, -182801.395094561, -185224.77122840539, -183703.19857635483, 0.062, 0.0, 0.986, 192.0, 0.0, 0.0, 0.0, 0.0, 0.0, 0.0, 0.0, 0.0, 0.0, 1.708991299166175E9, 0.0, 2024-02-26 18:48:19.166
26.0, 187500.0, 187500.0, 37446.21276214275, -183413.4529129807, 187500.0, -182925.4249245435, -185377.5006982685, -183855.1904386509, 0.062, 0.0, 0.986, 192.0, 0.0, 0.0, 0.0, 0.0, 0.0, 0.0, 0.0, 0.0, 0.0, 1.708991299169199E9, 0.0, 2024-02-26 18:48:19.169
27.0, 187500.0, 187500.0, 37089.9036037807, -183352.16442968423, 187500.0, -182877.3686739646, -185323.20831098658, -183799.5345949572, 0.064, -0.004, 0.988, 192.0, 2.0, 0.0, 255.0, 224.0, 30.0, 224.0, 0.0, 0.0, 0.0, 1.708991299173207E9, 0.0, 2024-02-26 18:48:19.173
28.0, 187500.0, 187500.0, 36158.6852262837, -183204.21823313454, 187500.0, -182806.46894055235, -185179.7548150724, -183654.91880833136, 0.064, -0.004, 0.988, 192.0, 0.0, 0.0, 0.0, 0.0, 0.0, 0.0, 0.0, 0.0, 0.0, 1.708991299177196E9, 0.0, 2024-02-26 18:48:19.177
29.0, 187500.0, 187500.0, 36182.8921655288, -183205.98402094652, 187500.0, -182793.2590595793, -185190.28248671087, -183664.41829972487, 0.064, -0.004, 0.988, 192.0, 0.0, 0.0, 0.0, 0.0, 0.0, 0.0, 0.0, 0.0, 0.0, 1.708991299181206E9, 0.0, 2024-02-26 18:48:19.181
30.0, 187500.0, 187500.0, 37142.1172788283, -183345.9729964701, 187500.0, -182912.75148543736, -185342.16259028466, -183814.80083642018, 0.064, -0.004, 0.988, 192.0, 0.0, 0.0, 0.0, 0.0, 0.0, 0.0, 0.0, 0.0, 0.0, 1.708991299185213E9, 0.0, 2024-02-26 18:48:19.185
31.0, 187500.0, 187500.0, 37095.379781172254, -183334.14892365324, 187500.0, -182899.7204184199, -185338.8098286164, -183809.97285961782, 0.064, -0.004, 0.988, 192.0, 0.0, 0.0, 0.0, 0.0, 0.0, 0.0, 0.0, 0.0, 0.0, 1.708991299189211E9, 0.0, 2024-02-26 18:48:19.189
32.0, 187500.0, 187500.0, 36068.58534438436, -183172.8810874082, 187500.0, -182808.39119057552, -185182.3029139403, -183652.32600597455, 0.064, -0.004, 0.988, 192.0, 0.0, 0.0, 0.0, 0.0, 0.0, 0.0, 0.0, 0.0, 0.0, 1.7089912991932E9, 0.0, 2024-02-26 18:48:19.193
33.0, 187500.0, 187500.0, 35963.84506986679, -183152.69746216506, 187500.0, -182784.3854170305, -185170.38943414565, -183639.56315989056, 0.064, -0.004, 0.988, 192.0, 0.0, 0.0, 0.0, 0.0, 0.0, 0.0, 0.0, 0.0, 0.0, 1.708991299196224E9, 0.0, 2024-02-26 18:48:19.196
34.0, 187500.0, 187500.0, 36910.955537671514, -183273.5533444349, 187500.0, -182883.09072054515, -185303.42701714364, -183772.26546672173, 0.064, -0.004, 0.988, 192.0, 0.0, 0.0, 0.0, 0.0, 0.0, 0.0, 0.0, 0.0, 0.0, 1.708991299200237E9, 0.0, 2024-02-26 18:48:19.200
35.0, 187500.0, 187500.0, 37420.59766299697, -183293.28993478895, 187500.0, -182903.8107876552, -185332.1490087687, -183799.89222286848, 0.064, -0.004, 0.988, 192.0, 0.0, 0.0, 0.0, 0.0, 0.0, 0.0, 0.0, 0.0, 0.0, 1.708991299205247E9, 0.0, 2024-02-26 18:48:19.205
36.0, 187500.0, 187500.0, 36705.565357871696, -183126.970604297, 187500.0, -182824.46209483888, -185171.2611521794, -183637.52915114514, 0.064, -0.004, 0.988, 192.0, 0.0, 0.0, 0.0, 0.0, 0.0, 0.0, 0.0, 0.0, 0.0, 1.708991299209253E9, 0.0, 2024-02-26 18:48:19.209
37.0, 187500.0, 187500.0, 36633.30216804769, -183071.00183618092, 187500.0, -182784.47482400833, -185122.91432892258, -183587.19302263178, 0.056, -0.008, 0.984, 192.0, 1.0, 192.0, 255.0, 192.0, 30.0, 192.0, 0.0, 0.0, 0.0, 1.708991299213256E9, 0.0, 2024-02-26 18:48:19.213
38.0, 187500.0, 187500.0, 37231.770125838535, -183185.4427677921, 187500.0, -182869.72437736086, -185249.35814730622, -183711.93810843685, 0.056, -0.008, 0.984, 192.0, 0.0, 0.0, 0.0, 0.0, 0.0, 0.0, 0.0, 0.0, 0.0, 1.708991299217256E9, 0.0, 2024-02-26 18:48:19.217
39.0, 187500.0, 187500.0, 37394.55788070654, -183299.88369940326, 187500.0, -182972.31888441075, -185375.26552382298, -183837.26433959775, 0.056, -0.008, 0.984, 192.0, 0.0, 0.0, 0.0, 0.0, 0.0, 0.0, 0.0, 0.0, 0.0, 1.708991299221253E9, 0.0, 2024-02-26 18:48:19.221
40.0, 187500.0, 187500.0, 35967.26488676845, -183185.71098872556, 187500.0, -182846.27739742727, -185265.4290515696, -183726.3549836105, 0.056, -0.008, 0.984, 192.0, 0.0, 0.0, 0.0, 0.0, 0.0, 0.0, 0.0, 0.0, 0.0, 1.708991299224284E9, 0.0, 2024-02-26 18:48:19.224
41.0, 187500.0, 187500.0, 35327.35679475746, -183139.15230502514, 187500.0, -182789.5933734886, -185225.84411213925, -183686.18889882433, 0.056, -0.008, 0.984, 192.0, 0.0, 0.0, 0.0, 0.0, 0.0, 0.0, 0.0, 0.0, 0.0, 1.708991299228277E9, 0.0, 2024-02-26 18:48:19.228
42.0, 187500.0, 187500.0, 35993.97522139254, -183226.16764618966, 187500.0, -182865.63400812555, -185323.2530144755, -183782.61432440454, 0.056, -0.008, 0.984, 192.0, 0.0, 0.0, 0.0, 0.0, 0.0, 0.0, 0.0, 0.0, 0.0, 1.708991299233256E9, 0.0, 2024-02-26 18:48:19.233
43.0, 187500.0, 187500.0, 36993.589936922785, -183346.80001101494, 187500.0, -182975.44812863448, -185455.44123118417, -183914.33315447965, 0.056, -0.008, 0.984, 192.0, 0.0, 0.0, 0.0, 0.0, 0.0, 0.0, 0.0, 0.0, 0.0, 1.708991299237257E9, 0.0, 2024-02-26 18:48:19.237
44.0, 187500.0, 187500.0, 36162.19445016318, -183219.90915774216, 187500.0, -182861.0742522567, -185334.2053692586, -183792.15851928695, 0.056, -0.008, 0.984, 192.0, 0.0, 0.0, 0.0, 0.0, 0.0, 0.0, 0.0, 0.0, 0.0, 1.708991299241286E9, 0.0, 2024-02-26 18:48:19.241
45.0, 187500.0, 187500.0, 35389.584051321035, -183117.80638907032, 187500.0, -182796.76828345875, -185238.62930996768, -183695.28605881764, 0.056, -0.008, 0.984, 192.0, 0.0, 0.0, 0.0, 0.0, 0.0, 0.0, 0.0, 0.0, 0.0, 1.708991299245282E9, 0.0, 2024-02-26 18:48:19.245
46.0, 187500.0, 187500.0, 35691.310249723225, -183160.20764830205, 187500.0, -182816.30370811268, -185291.22296467103, -183746.40449838692, 0.056, -0.008, 0.984, 192.0, 0.0, 0.0, 0.0, 0.0, 0.0, 0.0, 0.0, 0.0, 0.0, 1.708991299249303E9, 0.0, 2024-02-26 18:48:19.249
47.0, 187500.0, 187500.0, 36793.94415544798, -183288.81958589787, 187500.0, -182932.175151369, -185431.14488496125, -183886.63934309952, 0.058, -0.008, 0.982, 192.0, 1.0, 208.0, 255.0, 192.0, 30.0, 176.0, 0.0, 0.0, 0.0, 1.708991299253278E9, 0.0, 2024-02-26 18:48:19.253
48.0, 187500.0, 187500.0, 36383.92375515983, -183184.0346078914, 187500.0, -182871.6689791285, -185331.00906980148, -183785.49769943926, 0.058, -0.008, 0.982, 192.0, 0.0, 0.0, 0.0, 0.0, 0.0, 0.0, 0.0, 0.0, 0.0, 1.70899129925628E9, 0.0, 2024-02-26 18:48:19.256
49.0, 187500.0, 187500.0, 35621.259882600294, -183038.52475148736, 187500.0, -182831.21232166438, -185189.43312042157, -183642.87121806995, 0.058, -0.008, 0.982, 192.0, 0.0, 0.0, 0.0, 0.0, 0.0, 0.0, 0.0, 0.0, 0.0, 1.708991299261281E9, 0.0, 2024-02-26 18:48:19.261
50.0, 187500.0, 187500.0, 35664.197583698944, -183049.8123824373, 187500.0, -182819.18708314744, -185209.95202183153, -183662.2501805127, 0.058, -0.008, 0.982, 192.0, 0.0, 0.0, 0.0, 0.0, 0.0, 0.0, 0.0, 0.0, 0.0, 1.708991299265285E9, 0.0, 2024-02-26 18:48:19.265
51.0, 187500.0, 187500.0, 36501.65039320593, -183220.87028275375, 187500.0, -182966.70859655246, -185393.32573334288, -183844.59571177908, 0.058, -0.008, 0.982, 192.0, 0.0, 0.0, 0.0, 0.0, 0.0, 0.0, 0.0, 0.0, 0.0, 1.708991299269277E9, 0.0, 2024-02-26 18:48:19.269
52.0, 187500.0, 187500.0, 36158.238191394594, -183175.5856484873, 187500.0, -182918.7194012069, -185355.28306427994, -183805.6813246824, 0.058, -0.008, 0.982, 192.0, 0.0, 0.0, 0.0, 0.0, 0.0, 0.0, 0.0, 0.0, 0.0, 1.708991299273332E9, 0.0, 2024-02-26 18:48:19.273
53.0, 187500.0, 187500.0, 35345.260542066164, -183025.60544319218, 187500.0, -182815.18612088994, -185210.48846369845, -183659.16563977787, 0.058, -0.008, 0.982, 192.0, 0.0, 0.0, 0.0, 0.0, 0.0, 0.0, 0.0, 0.0, 0.0, 1.708991299276326E9, 0.0, 2024-02-26 18:48:19.276
54.0, 187500.0, 187500.0, 35569.85087035309, -183016.06124830976, 187500.0, -182794.17548110193, -185209.05795205332, -183656.88576184344, 0.058, -0.008, 0.982, 192.0, 0.0, 0.0, 0.0, 0.0, 0.0, 0.0, 0.0, 0.0, 0.0, 1.708991299280336E9, 0.0, 2024-02-26 18:48:19.280
55.0, 187500.0, 187500.0, 36688.46627336339, -183155.02204358843, 187500.0, -182916.10424710563, -185361.09451783833, -183807.5812229611, 0.058, -0.008, 0.982, 192.0, 0.0, 0.0, 0.0, 0.0, 0.0, 0.0, 0.0, 0.0, 0.0, 1.708991299284341E9, 0.0, 2024-02-26 18:48:19.284
56.0, 187500.0, 187500.0, 36708.5157881398, -183173.26106706396, 187500.0, -182928.8223897007, -185388.43070130717, -183833.62100525154, 0.058, -0.008, 0.982, 192.0, 0.0, 0.0, 0.0, 0.0, 0.0, 0.0, 0.0, 0.0, 0.0, 1.708991299288319E9, 0.0, 2024-02-26 18:48:19.288
57.0, 187500.0, 187500.0, 35491.50800603724, -183027.86296938217, 187500.0, -182826.4066966065, -185246.65358622716, -183691.6650762159, 0.058, 0.0, 0.98, 192.0, 1.0, 208.0, 0.0, 0.0, 30.0, 160.0, 0.0, 0.0, 0.0, 1.708991299293322E9, 0.0, 2024-02-26 18:48:19.293
58.0, 187500.0, 187500.0, 35153.90725778428, -183018.94462334452, 187500.0, -182813.26387086677, -185245.3795367932, -183689.854584915, 0.058, 0.0, 0.98, 192.0, 0.0, 0.0, 0.0, 0.0, 0.0, 0.0, 0.0, 0.0, 0.0, 1.708991299297317E9, 0.0, 2024-02-26 18:48:19.297
59.0, 187500.0, 187500.0, 35960.87228785423, -183162.7333954255, 187500.0, -182936.9807764269, -185401.3723613468, -183844.59571177908, 0.058, 0.0, 0.98, 192.0, 0.0, 0.0, 0.0, 0.0, 0.0, 0.0, 0.0, 0.0, 0.0, 1.708991299301331E9, 0.0, 2024-02-26 18:48:19.301
60.0, 187500.0, 187500.0, 36423.24047365671, -183222.70312579907, 187500.0, -182986.3334281842, -185472.45090871464, -183914.37785796856, 0.058, 0.0, 0.98, 192.0, 0.0, 0.0, 0.0, 0.0, 0.0, 0.0, 0.0, 0.0, 0.0, 1.708991299304325E9, 0.0, 2024-02-26 18:48:19.304
61.0, 187500.0, 187500.0, 35472.30785755013, -183069.1242896467, 187500.0, -182843.12580145907, -185324.0353255314, -183765.13526024047, 0.058, 0.0, 0.98, 192.0, 0.0, 0.0, 0.0, 0.0, 0.0, 0.0, 0.0, 0.0, 0.0, 1.70899129930833E9, 0.0, 2024-02-26 18:48:19.308
62.0, 187500.0, 187500.0, 35147.17938270323, -183020.17396928955, 187500.0, -182798.57877475963, -185282.01404595544, -183722.15285565294, 0.058, 0.0, 0.98, 192.0, 0.0, 0.0, 0.0, 0.0, 0.0, 0.0, 0.0, 0.0, 0.0, 1.708991299312324E9, 0.0, 2024-02-26 18:48:19.312
63.0, 187500.0, 187500.0, 35800.163245220574, -183131.2844909769, 187500.0, -182890.77972063777, -185404.27808812595, -183843.56753153415, 0.058, 0.0, 0.98, 192.0, 0.0, 0.0, 0.0, 0.0, 0.0, 0.0, 0.0, 0.0, 0.0, 1.708991299316377E9, 0.0, 2024-02-26 18:48:19.316
64.0, 187500.0, 187500.0, 36450.956636781295, -183236.67296608366, 187500.0, -182985.70757933948, -185520.529511038, -183958.4778497789, 0.058, 0.0, 0.98, 192.0, 0.0, 0.0, 0.0, 0.0, 0.0, 0.0, 0.0, 0.0, 0.0, 1.708991299321383E9, 0.0, 2024-02-26 18:48:19.321
65.0, 187500.0, 187500.0, 35530.46709662284, -183093.10771144723, 187500.0, -182868.24916222683, -185381.7028262261, -183818.31006029964, 0.058, 0.0, 0.98, 192.0, 0.0, 0.0, 0.0, 0.0, 0.0, 0.0, 0.0, 0.0, 0.0, 1.70899129932539E9, 0.0, 2024-02-26 18:48:19.325
66.0, 187500.0, 187500.0, 35077.21842255812, -183004.37128595964, 187500.0, -182822.56219656017, -185298.66609557465, -183734.84864650352, 0.058, 0.0, 0.98, 192.0, 0.0, 0.0, 0.0, 0.0, 0.0, 0.0, 0.0, 0.0, 0.0, 1.708991299328381E9, 0.0, 2024-02-26 18:48:19.328
67.0, 187500.0, 187500.0, 35629.48532455985, -183072.6111617817, 187500.0, -182860.94014178994, -185376.6960354681, -183811.7386474298, 0.062, 0.0, 0.98, 192.0, 1.0, 240.0, 0.0, 0.0, 30.0, 160.0, 0.0, 0.0, 0.0, 1.708991299332381E9, 0.0, 2024-02-26 18:48:19.332
68.0, 187500.0, 187500.0, 36545.21394314933, -183194.5846312743, 187500.0, -182970.66485532105, -185510.67239173324, -183944.5750647277, 0.062, 0.0, 0.98, 192.0, 0.0, 0.0, 0.0, 0.0, 0.0, 0.0, 0.0, 0.0, 0.0, 1.708991299336379E9, 0.0, 2024-02-26 18:48:19.336
69.0, 187500.0, 187500.0, 35792.27307942785, -183073.12525190416, 187500.0, -182876.5193076753, -185395.73972174403, -183829.53063601622, 0.062, 0.0, 0.98, 192.0, 0.0, 0.0, 0.0, 0.0, 0.0, 0.0, 0.0, 0.0, 0.0, 1.708991299340375E9, 0.0, 2024-02-26 18:48:19.340
70.0, 187500.0, 187500.0, 35130.25911215057, -182969.45786112046, 187500.0, -182820.84111223713, -185297.77202579644, -183730.64651854595, 0.062, 0.0, 0.98, 192.0, 0.0, 0.0, 0.0, 0.0, 0.0, 0.0, 0.0, 0.0, 0.0, 1.70899129934438E9, 0.0, 2024-02-26 18:48:19.344
71.0, 187500.0, 187500.0, 35430.89007507444, -183021.44801872352, 187500.0, -182849.3172346732, -185358.76993641496, -183790.45978670835, 0.062, 0.0, 0.98, 192.0, 0.0, 0.0, 0.0, 0.0, 0.0, 0.0, 0.0, 0.0, 0.0, 1.708991299349387E9, 0.0, 2024-02-26 18:48:19.349
72.0, 187500.0, 187500.0, 36340.784888361086, -183173.37282578624, 187500.0, -182985.61817236163, -185522.76468548356, -183953.2251898319, 0.062, 0.0, 0.98, 192.0, 0.0, 0.0, 0.0, 0.0, 0.0, 0.0, 0.0, 0.0, 0.0, 1.70899129935338E9, 0.0, 2024-02-26 18:48:19.353
73.0, 187500.0, 187500.0, 35677.96625828341, -183088.23503115596, 187500.0, -182909.15285458005, -185444.53357988998, -183873.02713072626, 0.062, 0.0, 0.98, 192.0, 0.0, 0.0, 0.0, 0.0, 0.0, 0.0, 0.0, 0.0, 0.0, 1.70899129935638E9, 0.0, 2024-02-26 18:48:19.356
74.0, 187500.0, 187500.0, 34699.96567964145, -182969.36845414265, 187500.0, -182831.5028943423, -185330.31616572334, -183757.96035027032, 0.062, 0.0, 0.98, 192.0, 0.0, 0.0, 0.0, 0.0, 0.0, 0.0, 0.0, 0.0, 0.0, 1.708991299360411E9, 0.0, 2024-02-26 18:48:19.360
75.0, 187500.0, 187500.0, 34713.60024375919, -183002.7396086144, 187500.0, -182840.22007467988, -185372.56096274388, -183799.24402227928, 0.062, 0.0, 0.98, 192.0, 0.0, 0.0, 0.0, 0.0, 0.0, 0.0, 0.0, 0.0, 0.0, 1.708991299364409E9, 0.0, 2024-02-26 18:48:19.364
76.0, 187500.0, 187500.0, 35634.67092927348, -183159.22417154603, 187500.0, -182983.60651536068, -185541.540150826, -183967.55265802774, 0.062, 0.0, 0.98, 192.0, 0.0, 0.0, 0.0, 0.0, 0.0, 0.0, 0.0, 0.0, 0.0, 1.708991299370421E9, 0.0, 2024-02-26 18:48:19.370
77.0, 187500.0, 187500.0, 35371.7473592457, -183124.15428449563, 187500.0, -182945.27327361982, -185514.0922086349, -183938.24952104682, 0.064, -0.004, 0.98, 192.0, 2.0, 0.0, 255.0, 224.0, 30.0, 160.0, 0.0, 0.0, 0.0, 1.708991299373419E9, 0.0, 2024-02-26 18:48:19.373
78.0, 187500.0, 187500.0, 34412.58930117956, -182975.44812863448, 187500.0, -182848.7584410618, -185369.56582898687, -183793.38786523198, 0.064, -0.004, 0.98, 192.0, 0.0, 0.0, 0.0, 0.0, 0.0, 0.0, 0.0, 0.0, 0.0, 1.708991299377417E9, 0.0, 2024-02-26 18:48:19.377
79.0, 187500.0, 187500.0, 34385.94602178884, -182974.442300134, 187500.0, -182837.31434790068, -185376.74073895704, -183800.56277520215, 0.064, -0.004, 0.98, 192.0, 0.0, 0.0, 0.0, 0.0, 0.0, 0.0, 0.0, 0.0, 0.0, 1.708991299381417E9, 0.0, 2024-02-26 18:48:19.381
80.0, 187500.0, 187500.0, 35297.67367812082, -183094.33705739226, 187500.0, -182937.71838399392, -185507.6772579762, -183930.47111397638, 0.064, -0.004, 0.98, 192.0, 0.0, 0.0, 0.0, 0.0, 0.0, 0.0, 0.0, 0.0, 0.0, 1.708991299384424E9, 0.0, 2024-02-26 18:48:19.384
81.0, 187500.0, 187500.0, 35382.09621692851, -183104.68591507507, 187500.0, -182945.31797710873, -185527.1456273968, -183948.30780605171, 0.064, -0.004, 0.98, 192.0, 0.0, 0.0, 0.0, 0.0, 0.0, 0.0, 0.0, 0.0, 0.0, 1.70899129938841E9, 0.0, 2024-02-26 18:48:19.388
82.0, 187500.0, 187500.0, 34314.97923314324, -182943.66394801904, 187500.0, -182854.8604672981, -185370.9069336542, -183790.9738768308, 0.064, -0.004, 0.98, 192.0, 0.0, 0.0, 0.0, 0.0, 0.0, 0.0, 0.0, 0.0, 0.0, 1.708991299392471E9, 0.0, 2024-02-26 18:48:19.392
83.0, 187500.0, 187500.0, 34130.84556232042, -182906.29183128977, 187500.0, -182837.67197581197, -185340.1956367726, -183760.1731729714, 0.064, -0.004, 0.98, 192.0, 0.0, 0.0, 0.0, 0.0, 0.0, 0.0, 0.0, 0.0, 0.0, 1.70899129939645E9, 0.0, 2024-02-26 18:48:19.396
84.0, 187500.0, 187500.0, 35034.41483192621, -183019.81634137826, 187500.0, -182924.50850302083, -185466.30417898943, -183884.895907032, 0.064, -0.004, 0.98, 192.0, 0.0, 0.0, 0.0, 0.0, 0.0, 0.0, 0.0, 0.0, 0.0, 1.708991299400506E9, 0.0, 2024-02-26 18:48:19.400
85.0, 187500.0, 187500.0, 35582.70312341489, -183073.6169902822, 187500.0, -182970.84366927668, -185530.07370592043, -183948.2183990739, 0.064, -0.004, 0.98, 192.0, 0.0, 0.0, 0.0, 0.0, 0.0, 0.0, 0.0, 0.0, 0.0, 1.708991299404457E9, 0.0, 2024-02-26 18:48:19.404
86.0, 187500.0, 187500.0, 34599.18166389247, -182860.29194120073, 187500.0, -182869.2102872384, -185361.54155272743, -183778.34514121356, 0.064, -0.004, 0.98, 192.0, 0.0, 0.0, 0.0, 0.0, 0.0, 0.0, 0.0, 0.0, 0.0, 1.70899129940947E9, 0.0, 2024-02-26 18:48:19.409
87.0, 187500.0, 187500.0, 34202.05822015503, -182661.24965682623, 187500.0, -182826.58551056214, -185292.74288329398, -183708.16066362392, 0.062, -0.006, 0.984, 192.0, 1.0, 240.0, 255.0, 208.0, 30.0, 192.0, 0.0, 0.0, 0.0, 1.708991299412465E9, 0.0, 2024-02-26 18:48:19.412
88.0, 187500.0, 187500.0, 34811.00914609541, -182958.57256157073, 187500.0, -182871.62427563957, -185382.17221285967, -183796.20418503336, 0.062, -0.006, 0.984, 192.0, 0.0, 0.0, 0.0, 0.0, 0.0, 0.0, 0.0, 0.0, 0.0, 1.708991299416452E9, 0.0, 2024-02-26 18:48:19.416
89.0, 187500.0, 187500.0, 35558.02679753623, -183446.86877094136, 187500.0, -182952.51523882334, -185481.86099313034, -183893.52368039175, 0.062, -0.006, 0.984, 192.0, 0.0, 0.0, 0.0, 0.0, 0.0, 0.0, 0.0, 0.0, 0.0, 1.70899129942046E9, 0.0, 2024-02-26 18:48:19.420
90.0, 187500.0, 187500.0, 34765.50099438441, -183391.65996213676, 187500.0, -182870.50668841682, -185331.6572703907, -183741.95650124032, 0.062, -0.006, 0.984, 192.0, 0.0, 0.0, 0.0, 0.0, 0.0, 0.0, 0.0, 0.0, 0.0, 1.708991299424456E9, 0.0, 2024-02-26 18:48:19.424
91.0, 187500.0, 187500.0, 34399.02179229519, -183289.49013823154, 187500.0, -182833.62631006556, -185235.88004539968, -183645.48637217123, 0.062, -0.006, 0.984, 192.0, 0.0, 0.0, 0.0, 0.0, 0.0, 0.0, 0.0, 0.0, 0.0, 1.708991299428449E9, 0.0, 2024-02-26 18:48:19.428
92.0, 187500.0, 187500.0, 34955.043787365415, -183342.66493829072, 187500.0, -182850.2560079403, -185298.733150808, -183707.44540780134, 0.062, -0.006, 0.984, 192.0, 0.0, 0.0, 0.0, 0.0, 0.0, 0.0, 0.0, 0.0, 0.0, 1.708991299433494E9, 0.0, 2024-02-26 18:48:19.433
93.0, 187500.0, 187500.0, 35806.22056796796, -183462.4479368267, 187500.0, -182957.36556737014, -185430.5190361165, -183838.2925198427, 0.062, -0.006, 0.984, 192.0, 0.0, 0.0, 0.0, 0.0, 0.0, 0.0, 0.0, 0.0, 0.0, 1.708991299437504E9, 0.0, 2024-02-26 18:48:19.437
94.0, 187500.0, 187500.0, 34960.09528161231, -183339.64745278924, 187500.0, -182887.13638629156, -185313.75352308198, -183720.63293702996, 0.062, -0.006, 0.984, 192.0, 0.0, 0.0, 0.0, 0.0, 0.0, 0.0, 0.0, 0.0, 0.0, 1.708991299440492E9, 0.0, 2024-02-26 18:48:19.440
95.0, 187500.0, 187500.0, 34177.784225676565, -183221.54083508742, 187500.0, -182843.84105728162, -185201.0113240494, -183606.30376414108, 0.062, -0.006, 0.984, 192.0, 0.0, 0.0, 0.0, 0.0, 0.0, 0.0, 0.0, 0.0, 0.0, 1.708991299444497E9, 0.0, 2024-02-26 18:48:19.444
96.0, 187500.0, 187500.0, 34474.749502509774, -183261.2151814956, 187500.0, -182851.1053742296, -185250.475734529, -183654.0470902976, 0.062, -0.006, 0.984, 192.0, 0.0, 0.0, 0.0, 0.0, 0.0, 0.0, 0.0, 0.0, 0.0, 1.708991299448517E9, 0.0, 2024-02-26 18:48:19.448
97.0, 187500.0, 187500.0, 35526.51083785425, -183409.18372978971, 187500.0, -182984.05355024978, -185410.760094018, -183813.9961736198, 0.066, -0.002, 0.986, 192.0, 2.0, 16.0, 255.0, 240.0, 30.0, 208.0, 0.0, 0.0, 0.0, 1.708991299452506E9, 0.0, 2024-02-26 18:48:19.452
98.0, 187500.0, 187500.0, 35048.33996872186, -183331.1761416407, 187500.0, -182917.19948258396, -185339.9050640947, -183741.68828030687, 0.066, -0.002, 0.986, 192.0, 0.0, 0.0, 0.0, 0.0, 0.0, 0.0, 0.0, 0.0, 0.0, 1.708991299456494E9, 0.0, 2024-02-26 18:48:19.456
99.0, 187500.0, 187500.0, 34097.317945637464, -183198.96557318754, 187500.0, -182842.6117113366, -185213.03656256635, -183613.05399096658, 0.066, -0.002, 0.986, 192.0, 0.0, 0.0, 0.0, 0.0, 0.0, 0.0, 0.0, 0.0, 0.0, 1.708991299461507E9, 0.0, 2024-02-26 18:48:19.461
100.0, 187500.0, 187500.0, 34059.767014952544, -183228.62633807975, 187500.0, -182847.19381894992, -185252.5767985078, -183652.05778504108, 0.066, -0.002, 0.986, 192.0, 0.0, 0.0, 0.0, 0.0, 0.0, 0.0, 0.0, 0.0, 0.0, 1.708991299464502E9, 0.0, 2024-02-26 18:48:19.464
101.0, 187500.0, 187500.0, 34914.564778156855, -183401.62884016382, 187500.0, -183005.22065224894, -185439.50443738754, -183838.11370588705, 0.066, -0.002, 0.986, 192.0, 0.0, 0.0, 0.0, 0.0, 0.0, 0.0, 0.0, 0.0, 0.0, 1.708991299467505E9, 0.0, 2024-02-26 18:48:19.467
102.0, 187500.0, 187500.0, 34666.8850978476, -183408.6919914117, 187500.0, -183000.68324812452, -185454.4130509392, -183852.61998803855, 0.066, -0.002, 0.986, 192.0, 0.0, 0.0, 0.0, 0.0, 0.0, 0.0, 0.0, 0.0, 0.0, 1.708991299473508E9, 0.0, 2024-02-26 18:48:19.473
103.0, 187500.0, 187500.0, 33607.121837988125, -183293.73696967805, 187500.0, -182875.04409254124, -185344.33070949683, -183741.8223907736, 0.066, -0.002, 0.986, 192.0, 0.0, 0.0, 0.0, 0.0, 0.0, 0.0, 0.0, 0.0, 0.0, 1.708991299476515E9, 0.0, 2024-02-26 18:48:19.476
104.0, 187500.0, 187500.0, 33427.458516056366, -183312.04304838696, 187500.0, -182883.09072054515, -185372.0021691325, -183768.7785945867, 0.066, -0.002, 0.986, 192.0, 0.0, 0.0, 0.0, 0.0, 0.0, 0.0, 0.0, 0.0, 0.0, 1.708991299480506E9, 0.0, 2024-02-26 18:48:19.480
105.0, 187500.0, 187500.0, 34208.51787430261, -183467.07474792897, 187500.0, -183027.37123100416, -185539.3943833583, -183935.27673903428, 0.066, -0.002, 0.986, 192.0, 0.0, 0.0, 0.0, 0.0, 0.0, 0.0, 0.0, 0.0, 0.0, 1.708991299484506E9, 0.0, 2024-02-26 18:48:19.484
106.0, 187500.0, 187500.0, 34240.81614504053, -183517.03089678657, 187500.0, -183065.92799018955, -185598.3582852314, -183994.06182695174, 0.068, -0.006, 0.984, 192.0, 2.0, 32.0, 255.0, 208.0, 30.0, 192.0, 0.0, 0.0, 0.0, 1.708991299489525E9, 0.0, 2024-02-26 18:48:19.489
107.0, 187500.0, 187500.0, 33089.6118986144, -183357.86412452033, 187500.0, -182895.9206218625, -185444.1088967453, -183838.53838903172, 0.068, -0.006, 0.984, 192.0, 0.0, 0.0, 0.0, 0.0, 0.0, 0.0, 0.0, 0.0, 0.0, 1.708991299492556E9, 0.0, 2024-02-26 18:48:19.492
108.0, 187500.0, 187500.0, 32885.80869267091, -183325.5211502935, 187500.0, -182853.4523073974, -185419.09729469984, -183813.4373800084, 0.068, -0.006, 0.984, 192.0, 0.0, 0.0, 0.0, 0.0, 0.0, 0.0, 0.0, 0.0, 0.0, 1.708991299495539E9, 0.0, 2024-02-26 18:48:19.495
109.0, 187500.0, 187500.0, 33801.71612521602, -183431.20019807818, 187500.0, -182948.62603528812, -185535.4381245897, -183928.95119535344, 0.068, -0.006, 0.984, 192.0, 0.0, 0.0, 0.0, 0.0, 0.0, 0.0, 0.0, 0.0, 0.0, 1.708991299500561E9, 0.0, 2024-02-26 18:48:19.500
110.0, 187500.0, 187500.0, 34493.52496785223, -183472.37211136488, 187500.0, -182986.42283516203, -185585.72954961416, -183977.34272209916, 0.068, -0.006, 0.984, 192.0, 0.0, 0.0, 0.0, 0.0, 0.0, 0.0, 0.0, 0.0, 0.0, 1.708991299504562E9, 0.0, 2024-02-26 18:48:19.504
111.0, 187500.0, 187500.0, 33681.26257434637, -183285.55623120742, 187500.0, -182883.58245892316, -185404.05457068142, -183793.8349001211, 0.068, -0.006, 0.984, 192.0, 0.0, 0.0, 0.0, 0.0, 0.0, 0.0, 0.0, 0.0, 0.0, 1.70899129950856E9, 0.0, 2024-02-26 18:48:19.508
112.0, 187500.0, 187500.0, 33432.2417893698, -183197.82563422032, 187500.0, -182848.914903273, -185322.60481388628, -183711.42401831437, 0.068, -0.006, 0.984, 192.0, 0.0, 0.0, 0.0, 0.0, 0.0, 0.0, 0.0, 0.0, 0.0, 1.708991299512548E9, 0.0, 2024-02-26 18:48:19.512
113.0, 187500.0, 187500.0, 34087.885509477324, -183266.04315829792, 187500.0, -182880.09558678814, -185401.1711956467, -183788.51518494074, 0.068, -0.006, 0.984, 192.0, 0.0, 0.0, 0.0, 0.0, 0.0, 0.0, 0.0, 0.0, 0.0, 1.708991299517571E9, 0.0, 2024-02-26 18:48:19.517
114.0, 187500.0, 187500.0, 34767.26678219638, -183361.32864491091, 187500.0, -182969.36845414265, -185507.47609227613, -183893.5013286473, 0.068, -0.006, 0.984, 192.0, 0.0, 0.0, 0.0, 0.0, 0.0, 0.0, 0.0, 0.0, 0.0, 1.708991299520582E9, 0.0, 2024-02-26 18:48:19.520
115.0, 187500.0, 187500.0, 33787.478063997994, -183197.71387549804, 187500.0, -182890.8691276156, -185347.92934035414, -183732.3228993801, 0.068, -0.006, 0.984, 192.0, 0.0, 0.0, 0.0, 0.0, 0.0, 0.0, 0.0, 0.0, 0.0, 1.708991299523598E9, 0.0, 2024-02-26 18:48:19.523
116.0, 187500.0, 187500.0, 33222.04598451209, -183104.8647290307, 187500.0, -182845.29392067122, -185260.735185234, -183644.05586052607, 0.064, -0.006, 0.984, 192.0, 2.0, 0.0, 255.0, 208.0, 30.0, 192.0, 0.0, 0.0, 0.0, 1.708991299528587E9, 0.0, 2024-02-26 18:48:19.528
117.0, 187500.0, 187500.0, 33734.25856044991, -183160.76644191344, 187500.0, -182864.38231043605, -185326.18109299912, -183708.71945723527, 0.064, -0.006, 0.984, 192.0, 0.0, 0.0, 0.0, 0.0, 0.0, 0.0, 0.0, 0.0, 0.0, 1.708991299532576E9, 0.0, 2024-02-26 18:48:19.532
118.0, 187500.0, 187500.0, 34753.58751458973, -183280.19181253813, 187500.0, -182971.6259803326, -185457.0282050405, -183839.00777566526, 0.064, -0.006, 0.984, 192.0, 0.0, 0.0, 0.0, 0.0, 0.0, 0.0, 0.0, 0.0, 0.0, 1.708991299536595E9, 0.0, 2024-02-26 18:48:19.536
119.0, 187500.0, 187500.0, 34086.70086702119, -183164.20861055955, 187500.0, -182902.0673515877, -185346.34236649782, -183728.07606793358, 0.064, -0.006, 0.984, 192.0, 0.0, 0.0, 0.0, 0.0, 0.0, 0.0, 0.0, 0.0, 0.0, 1.708991299540587E9, 0.0, 2024-02-26 18:48:19.540
120.0, 187500.0, 187500.0, 33283.557985253094, -183055.1544493621, 187500.0, -182856.1121649876, -185242.0714786138, -183623.33579341602, 0.064, -0.006, 0.984, 192.0, 0.0, 0.0, 0.0, 0.0, 0.0, 0.0, 0.0, 0.0, 0.0, 1.708991299545576E9, 0.0, 2024-02-26 18:48:19.545
121.0, 187500.0, 187500.0, 33429.78309747972, -183101.82489178478, 187500.0, -182869.1208802606, -185298.733150808, -183678.63400919843, 0.064, -0.006, 0.984, 192.0, 0.0, 0.0, 0.0, 0.0, 0.0, 0.0, 0.0, 0.0, 0.0, 1.708991299548574E9, 0.0, 2024-02-26 18:48:19.548
122.0, 187500.0, 187500.0, 34387.80121657863, -183254.42025118117, 187500.0, -183008.1934342615, -185465.4324609557, -183843.18755187842, 0.064, -0.006, 0.984, 192.0, 0.0, 0.0, 0.0, 0.0, 0.0, 0.0, 0.0, 0.0, 0.0, 1.708991299551574E9, 0.0, 2024-02-26 18:48:19.551
123.0, 187500.0, 187500.0, 33964.839156250855, -183182.64879973518, 187500.0, -182940.46764856193, -185400.27712586848, -183777.71929236883, 0.064, -0.006, 0.984, 192.0, 0.0, 0.0, 0.0, 0.0, 0.0, 0.0, 0.0, 0.0, 0.0, 1.708991299556577E9, 0.0, 2024-02-26 18:48:19.556
124.0, 187500.0, 187500.0, 33046.025996926546, -183047.1078213582, 187500.0, -182848.49022012833, -185268.4241853266, -183645.37461344895, 0.064, -0.006, 0.984, 192.0, 0.0, 0.0, 0.0, 0.0, 0.0, 0.0, 0.0, 0.0, 0.0, 1.708991299560597E9, 0.0, 2024-02-26 18:48:19.560
125.0, 187500.0, 187500.0, 33033.46431654267, -183057.43432729653, 187500.0, -182840.46594386888, -185288.33958963628, -183663.85950611348, 0.064, -0.006, 0.984, 192.0, 0.0, 0.0, 0.0, 0.0, 0.0, 0.0, 0.0, 0.0, 0.0, 1.708991299564578E9, 0.0, 2024-02-26 18:48:19.564
126.0, 187500.0, 187500.0, 33921.923806896666, -183203.8382534788, 187500.0, -182971.46951812145, -185446.58994037987, -183820.65699346745, 0.064, -0.006, 0.988, 192.0, 2.0, 0.0, 255.0, 208.0, 30.0, 224.0, 0.0, 0.0, 0.0, 1.708991299568648E9, 0.0, 2024-02-26 18:48:19.568
127.0, 187500.0, 187500.0, 33807.43817179658, -183178.2902095664, 187500.0, -182952.64934929006, -185428.86500702682, -183801.0321618357, 0.064, -0.006, 0.988, 192.0, 0.0, 0.0, 0.0, 0.0, 0.0, 0.0, 0.0, 0.0, 0.0, 1.708991299573639E9, 0.0, 2024-02-26 18:48:19.573
128.0, 187500.0, 187500.0, 32863.56870693788, -182994.0447800213, 187500.0, -182865.5669528922, -185248.3299670613, -183619.11131371395, 0.064, -0.006, 0.988, 192.0, 0.0, 0.0, 0.0, 0.0, 0.0, 0.0, 0.0, 0.0, 0.0, 1.708991299576634E9, 0.0, 2024-02-26 18:48:19.576
129.0, 187500.0, 187500.0, 32889.65319271722, -182961.52299183884, 187500.0, -182834.2521589103, -185223.1171993157, -183593.16093840136, 0.064, -0.006, 0.988, 192.0, 0.0, 0.0, 0.0, 0.0, 0.0, 0.0, 0.0, 0.0, 0.0, 1.708991299579622E9, 0.0, 2024-02-26 18:48:19.579
130.0, 187500.0, 187500.0, 33888.083265791334, -183069.75013849142, 187500.0, -182913.64555521557, -185342.0955350513, -183711.51342529219, 0.064, -0.006, 0.988, 192.0, 0.0, 0.0, 0.0, 0.0, 0.0, 0.0, 0.0, 0.0, 0.0, 1.708991299584621E9, 0.0, 2024-02-26 18:48:19.584
131.0, 187500.0, 187500.0, 34217.59268255147, -183093.21947016948, 187500.0, -182946.01088118684, -185376.22664883456, -183744.5269518527, 0.064, -0.006, 0.988, 192.0, 0.0, 0.0, 0.0, 0.0, 0.0, 0.0, 0.0, 0.0, 0.0, 1.708991299588618E9, 0.0, 2024-02-26 18:48:19.588
132.0, 187500.0, 187500.0, 33228.416231681855, -182930.20819785693, 187500.0, -182879.02270305427, -185217.75278064643, -183585.4719383087, 0.064, -0.006, 0.988, 192.0, 0.0, 0.0, 0.0, 0.0, 0.0, 0.0, 0.0, 0.0, 0.0, 1.708991299592628E9, 0.0, 2024-02-26 18:48:19.592
133.0, 187500.0, 187500.0, 33003.311813272456, -182888.72336014788, 187500.0, -182838.58839733465, -185183.3534459297, -183550.08912683598, 0.064, -0.006, 0.988, 192.0, 0.0, 0.0, 0.0, 0.0, 0.0, 0.0, 0.0, 0.0, 0.0, 1.70899129959662E9, 0.0, 2024-02-26 18:48:19.596
134.0, 187500.0, 187500.0, 33785.84638665276, -182997.21872773394, 187500.0, -182918.56293899572, -185302.62235434324, -183668.1957445378, 0.064, -0.006, 0.988, 192.0, 0.0, 0.0, 0.0, 0.0, 0.0, 0.0, 0.0, 0.0, 0.0, 1.708991299600642E9, 0.0, 2024-02-26 18:48:19.600
135.0, 187500.0, 187500.0, 34352.86543999499, -183079.13787116265, 187500.0, -182990.75907358638, -185393.7504164875, -183758.85442004853, 0.064, -0.006, 0.988, 192.0, 0.0, 0.0, 0.0, 0.0, 0.0, 0.0, 0.0, 0.0, 0.0, 1.70899129960462E9, 0.0, 2024-02-26 18:48:19.604
136.0, 187500.0, 187500.0, 33350.948494785844, -182934.96911942592, 187500.0, -182881.66020890002, -185254.8343246978, -183618.53016835812, 0.058, 0.0, 0.978, 192.0, 1.0, 208.0, 0.0, 0.0, 30.0, 144.0, 0.0, 0.0, 0.0, 1.70899129960763E9, 0.0, 2024-02-26 18:48:19.607
137.0, 187500.0, 187500.0, 32910.44031506065, -182865.14226974754, 187500.0, -182836.62144382257, -185190.88598381114, -183554.3359582825, 0.058, 0.0, 0.978, 192.0, 0.0, 0.0, 0.0, 0.0, 0.0, 0.0, 0.0, 0.0, 0.0, 1.708991299612663E9, 0.0, 2024-02-26 18:48:19.612
138.0, 187500.0, 187500.0, 33517.87132237808, -182946.72613700942, 187500.0, -182895.25006952885, -185282.12580467772, -183645.06168902657, 0.058, 0.0, 0.978, 192.0, 0.0, 0.0, 0.0, 0.0, 0.0, 0.0, 0.0, 0.0, 0.0, 1.70899129961667E9, 0.0, 2024-02-26 18:48:19.616
139.0, 187500.0, 187500.0, 34361.80613777711, -183067.73848149044, 187500.0, -183002.02435279184, -185414.62694580876, -183775.30530396765, 0.058, 0.0, 0.978, 192.0, 0.0, 0.0, 0.0, 0.0, 0.0, 0.0, 0.0, 0.0, 0.0, 1.708991299620665E9, 0.0, 2024-02-26 18:48:19.620
140.0, 187500.0, 187500.0, 33559.53497404277, -182936.5337415378, 187500.0, -182899.78747365327, -185300.29777291988, -183659.63502641144, 0.058, 0.0, 0.978, 192.0, 0.0, 0.0, 0.0, 0.0, 0.0, 0.0, 0.0, 0.0, 0.0, 1.708991299624662E9, 0.0, 2024-02-26 18:48:19.624
141.0, 187500.0, 187500.0, 33003.53533071701, -182707.54011959318, 187500.0, -182846.4562113829, -185210.48846369845, -183569.11046136744, 0.058, 0.0, 0.978, 192.0, 0.0, 0.0, 0.0, 0.0, 0.0, 0.0, 0.0, 0.0, 0.0, 1.708991299627682E9, 0.0, 2024-02-26 18:48:19.627
142.0, 187500.0, 187500.0, 33432.0406236697, -182835.32504264417, 187500.0, -182864.5611243917, -185264.55733353583, -183621.45824688175, 0.058, 0.0, 0.978, 192.0, 0.0, 0.0, 0.0, 0.0, 0.0, 0.0, 0.0, 0.0, 0.0, 1.708991299631675E9, 0.0, 2024-02-26 18:48:19.631
143.0, 187500.0, 187500.0, 34368.489309369244, -183364.86022053484, 187500.0, -182977.75035831338, -185402.17702414718, -183758.9214752819, 0.058, 0.0, 0.978, 192.0, 0.0, 0.0, 0.0, 0.0, 0.0, 0.0, 0.0, 0.0, 0.0, 1.708991299635678E9, 0.0, 2024-02-26 18:48:19.635
144.0, 187500.0, 187500.0, 33689.42096107256, -183443.35954706187, 187500.0, -182906.94003187897, -185305.10339797777, -183660.9537793343, 0.058, 0.0, 0.978, 192.0, 0.0, 0.0, 0.0, 0.0, 0.0, 0.0, 0.0, 0.0, 0.0, 1.708991299639678E9, 0.0, 2024-02-26 18:48:19.639
145.0, 187500.0, 187500.0, 32966.78906283248, -183313.02652514298, 187500.0, -182865.3210837032, -185178.39135866062, -183532.23008301618, 0.058, 0.0, 0.978, 192.0, 0.0, 0.0, 0.0, 0.0, 0.0, 0.0, 0.0, 0.0, 0.0, 1.708991299644663E9, 0.0, 2024-02-26 18:48:19.644
146.0, 187500.0, 187500.0, 33341.44900339234, -183331.64552827427, 187500.0, -182859.2637609558, -185206.12987352966, -183559.09687985145, 0.062, 0.002, 0.982, 192.0, 1.0, 240.0, 0.0, 16.0, 30.0, 176.0, 0.0, 0.0, 0.0, 1.708991299649669E9, 0.0, 2024-02-26 18:48:19.649
147.0, 187500.0, 187500.0, 34532.46170669338, -183460.68214901476, 187500.0, -182970.2401721764, -185347.90698860967, -183699.86816643097, 0.062, 0.002, 0.982, 192.0, 0.0, 0.0, 0.0, 0.0, 0.0, 0.0, 0.0, 0.0, 0.0, 1.70899129965271E9, 0.0, 2024-02-26 18:48:19.652
148.0, 187500.0, 187500.0, 34306.64203246141, -183384.50740391106, 187500.0, -182928.80003795624, -185278.21424939804, -183628.76726731865, 0.062, 0.002, 0.982, 192.0, 0.0, 0.0, 0.0, 0.0, 0.0, 0.0, 0.0, 0.0, 0.0, 1.708991299656715E9, 0.0, 2024-02-26 18:48:19.656
149.0, 187500.0, 187500.0, 33426.76561197825, -183226.56997758985, 187500.0, -182873.166546007, -185125.12715162363, -183474.94256197722, 0.062, 0.002, 0.982, 192.0, 0.0, 0.0, 0.0, 0.0, 0.0, 0.0, 0.0, 0.0, 0.0, 1.708991299660723E9, 0.0, 2024-02-26 18:48:19.660
150.0, 187500.0, 187500.0, 33418.60722525206, -183217.15989317416, 187500.0, -182839.147190946, -185122.95903241148, -183472.84149799842, 0.062, 0.002, 0.982, 192.0, 0.0, 0.0, 0.0, 0.0, 0.0, 0.0, 0.0, 0.0, 0.0, 1.708991299664709E9, 0.0, 2024-02-26 18:48:19.664
151.0, 187500.0, 187500.0, 34342.60598929, -183350.19747617215, 187500.0, -182949.8330294887, -185267.41835682612, -183616.07147646803, 0.062, 0.002, 0.982, 192.0, 0.0, 0.0, 0.0, 0.0, 0.0, 0.0, 0.0, 0.0, 0.0, 1.708991299668726E9, 0.0, 2024-02-26 18:48:19.668
152.0, 187500.0, 187500.0, 34310.330070296535, -183335.80295274293, 187500.0, -182950.52593356682, -185261.96453117902, -183609.45536010928, 0.062, 0.002, 0.982, 192.0, 0.0, 0.0, 0.0, 0.0, 0.0, 0.0, 0.0, 0.0, 0.0, 1.708991299671697E9, 0.0, 2024-02-26 18:48:19.671
153.0, 187500.0, 187500.0, 33317.622043802985, -183161.6828634361, 187500.0, -182874.06061578522, -185091.91245936305, -183437.57044524795, 0.062, 0.002, 0.982, 192.0, 0.0, 0.0, 0.0, 0.0, 0.0, 0.0, 0.0, 0.0, 0.0, 1.708991299675735E9, 0.0, 2024-02-26 18:48:19.675
154.0, 187500.0, 187500.0, 33226.248112469686, -183129.89868282064, 187500.0, -182834.27451065477, -185069.35954920764, -183412.4023809913, 0.062, 0.002, 0.982, 192.0, 0.0, 0.0, 0.0, 0.0, 0.0, 0.0, 0.0, 0.0, 0.0, 1.708991299679725E9, 0.0, 2024-02-26 18:48:19.679
155.0, 187500.0, 187500.0, 34120.76492557108, -183258.98000705006, 187500.0, -182938.65715726104, -185210.93549858755, -183553.41953675981, 0.062, 0.002, 0.982, 192.0, 0.0, 0.0, 0.0, 0.0, 0.0, 0.0, 0.0, 0.0, 0.0, 1.708991299684711E9, 0.0, 2024-02-26 18:48:19.684
156.0, 187500.0, 187500.0, 34412.678708157386, -183307.17036809569, 187500.0, -182980.0972914812, -185268.7818132379, -183611.3999618769, 0.062, -0.006, 0.984, 192.0, 1.0, 240.0, 255.0, 208.0, 30.0, 192.0, 0.0, 0.0, 0.0, 1.70899129968872E9, 0.0, 2024-02-26 18:48:19.688
157.0, 187500.0, 187500.0, 33303.67455526287, -183148.94236909656, 187500.0, -182883.78362462326, -185115.80647418578, -183456.88235245735, 0.062, -0.006, 0.984, 192.0, 0.0, 0.0, 0.0, 0.0, 0.0, 0.0, 0.0, 0.0, 0.0, 1.708991299692717E9, 0.0, 2024-02-26 18:48:19.692
158.0, 187500.0, 187500.0, 32937.97766422959, -183089.71024629002, 187500.0, -182861.6106941236, -185062.96695029343, -183403.50638669808, 0.062, -0.006, 0.984, 192.0, 0.0, 0.0, 0.0, 0.0, 0.0, 0.0, 0.0, 0.0, 0.0, 1.708991299695702E9, 0.0, 2024-02-26 18:48:19.695
159.0, 187500.0, 187500.0, 33661.48128050343, -183199.72553249903, 187500.0, -182937.49486654936, -185182.9064110406, -183522.99881255615, 0.062, -0.006, 0.984, 192.0, 0.0, 0.0, 0.0, 0.0, 0.0, 0.0, 0.0, 0.0, 0.0, 1.708991299699716E9, 0.0, 2024-02-26 18:48:19.699
160.0, 187500.0, 187500.0, 34327.876189693954, -183280.95177184962, 187500.0, -183006.71821912745, -185273.90036271815, -183612.8975287554, 0.062, -0.006, 0.984, 192.0, 0.0, 0.0, 0.0, 0.0, 0.0, 0.0, 0.0, 0.0, 0.0, 1.708991299703761E9, 0.0, 2024-02-26 18:48:19.703
161.0, 187500.0, 187500.0, 33404.927957645414, -183121.89675830567, 187500.0, -182893.52898520578, -185119.87449167663, -183457.57525653546, 0.062, -0.006, 0.984, 192.0, 0.0, 0.0, 0.0, 0.0, 0.0, 0.0, 0.0, 0.0, 0.0, 1.708991299707765E9, 0.0, 2024-02-26 18:48:19.707
162.0, 187500.0, 187500.0, 32941.68805380917, -183034.2555682964, 187500.0, -182852.89351378602, -185037.66477557, -183374.73969158408, 0.062, -0.006, 0.984, 192.0, 0.0, 0.0, 0.0, 0.0, 0.0, 0.0, 0.0, 0.0, 0.0, 1.70899129971175E9, 0.0, 2024-02-26 18:48:19.711
163.0, 187500.0, 187500.0, 33467.69165607591, -183108.709229077, 187500.0, -182894.60186893964, -185123.0931428782, -183458.82695422496, 0.062, -0.006, 0.984, 192.0, 0.0, 0.0, 0.0, 0.0, 0.0, 0.0, 0.0, 0.0, 0.0, 1.708991299716771E9, 0.0, 2024-02-26 18:48:19.716
164.0, 187500.0, 187500.0, 34314.75571569869, -183221.38437287623, 187500.0, -182995.76586434434, -185246.8324001828, -183581.33686558448, 0.062, -0.006, 0.984, 192.0, 0.0, 0.0, 0.0, 0.0, 0.0, 0.0, 0.0, 0.0, 0.0, 1.708991299720767E9, 0.0, 2024-02-26 18:48:19.720
165.0, 187500.0, 187500.0, 33532.33290104067, -183080.50132757443, 187500.0, -182901.84383414316, -185111.31377355027, -183444.36537556237, 0.062, -0.006, 0.984, 192.0, 0.0, 0.0, 0.0, 0.0, 0.0, 0.0, 0.0, 0.0, 0.0, 1.70899129972387E9, 0.0, 2024-02-26 18:48:19.723
166.0, 187500.0, 187500.0, 32917.14583839725, -182967.1332796971, 187500.0, -182852.29001668573, -185003.4219030645, -183335.84765623184, 0.066, -0.002, 0.982, 192.0, 2.0, 16.0, 255.0, 240.0, 30.0, 176.0, 0.0, 0.0, 0.0, 1.708991299727754E9, 0.0, 2024-02-26 18:48:19.727
167.0, 187500.0, 187500.0, 33265.85540364449, -183012.66378315256, 187500.0, -182863.4658889134, -185058.8765810581, -183390.1400435138, 0.066, -0.002, 0.982, 192.0, 0.0, 0.0, 0.0, 0.0, 0.0, 0.0, 0.0, 0.0, 0.0, 1.708991299731747E9, 0.0, 2024-02-26 18:48:19.731
168.0, 187500.0, 187500.0, 34232.85892401444, -183149.2329417745, 187500.0, -182985.12643398362, -185206.37574271866, -183537.1251150519, 0.066, -0.002, 0.982, 192.0, 0.0, 0.0, 0.0, 0.0, 0.0, 0.0, 0.0, 0.0, 0.0, 1.708991299735746E9, 0.0, 2024-02-26 18:48:19.735
169.0, 187500.0, 187500.0, 33669.57261199625, -183050.77350744887, 187500.0, -182918.49588376237, -185113.1466165956, -183442.15255286128, 0.066, -0.002, 0.982, 192.0, 0.0, 0.0, 0.0, 0.0, 0.0, 0.0, 0.0, 0.0, 0.0, 1.70899129973976E9, 0.0, 2024-02-26 18:48:19.739
170.0, 187500.0, 187500.0, 32882.23241355806, -182918.49588376237, 187500.0, -182862.907095302, -184986.59103948963, -183314.18881585466, 0.066, -0.002, 0.982, 192.0, 0.0, 0.0, 0.0, 0.0, 0.0, 0.0, 0.0, 0.0, 0.0, 1.708991299744767E9, 0.0, 2024-02-26 18:48:19.744
171.0, 187500.0, 187500.0, 33045.84718297091, -182951.42000334503, 187500.0, -182865.23167672535, -185028.45585685445, -183355.20426693014, 0.066, -0.002, 0.982, 192.0, 0.0, 0.0, 0.0, 0.0, 0.0, 0.0, 0.0, 0.0, 0.0, 1.708991299748758E9, 0.0, 2024-02-26 18:48:19.748
172.0, 187500.0, 187500.0, 34009.14031376127, -183099.07562721678, 187500.0, -182996.190547489, -185188.1143674987, -183514.058114774, 0.066, -0.002, 0.982, 192.0, 0.0, 0.0, 0.0, 0.0, 0.0, 0.0, 0.0, 0.0, 0.0, 1.708991299751801E9, 0.0, 2024-02-26 18:48:19.751
173.0, 187500.0, 187500.0, 33685.88938544862, -183047.13017310266, 187500.0, -182947.44139283197, -185144.05907917727, -183468.4605560852, 0.066, -0.002, 0.982, 192.0, 0.0, 0.0, 0.0, 0.0, 0.0, 0.0, 0.0, 0.0, 0.0, 1.7089912997558E9, 0.0, 2024-02-26 18:48:19.755
174.0, 187500.0, 187500.0, 32741.48347872299, -182906.7165144344, 187500.0, -182864.0693860137, -185008.98748743386, -183332.0702114189, 0.066, -0.002, 0.982, 192.0, 0.0, 0.0, 0.0, 0.0, 0.0, 0.0, 0.0, 0.0, 0.0, 1.708991299759828E9, 0.0, 2024-02-26 18:48:19.759
175.0, 187500.0, 187500.0, 32762.382359788702, -182905.19659581146, 187500.0, -182850.0995457291, -185015.55890030373, -183338.5745690554, 0.066, -0.002, 0.982, 192.0, 0.0, 0.0, 0.0, 0.0, 0.0, 0.0, 0.0, 0.0, 0.0, 1.708991299763827E9, 0.0, 2024-02-26 18:48:19.763
176.0, 187500.0, 187500.0, 33740.293531452844, -183042.16808583357, 187500.0, -182967.75912854186, -185162.6557305641, -183485.6043440824, 0.06, 0.0, 0.986, 192.0, 1.0, 224.0, 0.0, 0.0, 30.0, 208.0, 0.0, 0.0, 0.0, 1.70899129976783E9, 0.0, 2024-02-26 18:48:19.767
177.0, 187500.0, 187500.0, 33826.481858072504, -183034.41203050758, 187500.0, -182963.06526220625, -185168.71305331148, -183490.47702437366, 0.06, 0.0, 0.986, 192.0, 0.0, 0.0, 0.0, 0.0, 0.0, 0.0, 0.0, 0.0, 0.0, 1.708991299772823E9, 0.0, 2024-02-26 18:48:19.772
178.0, 187500.0, 187500.0, 32876.24214604404, -182741.89475082097, 187500.0, -182877.77100536478, -185002.5725367752, -183322.8165892144, 0.06, 0.0, 0.986, 192.0, 0.0, 0.0, 0.0, 0.0, 0.0, 0.0, 0.0, 0.0, 0.0, 1.708991299777809E9, 0.0, 2024-02-26 18:48:19.777
179.0, 187500.0, 187500.0, 32818.01585173796, -182701.19222416787, 187500.0, -182856.53684813224, -184948.21309425987, -183266.33373097584, 0.06, 0.0, 0.986, 192.0, 0.0, 0.0, 0.0, 0.0, 0.0, 0.0, 0.0, 0.0, 0.0, 1.708991299781808E9, 0.0, 2024-02-26 18:48:19.781
180.0, 187500.0, 187500.0, 33780.50431972794, -183138.16882826912, 187500.0, -182918.16060759552, -185052.46163039943, -183369.06234849244, 0.06, 0.0, 0.986, 192.0, 0.0, 0.0, 0.0, 0.0, 0.0, 0.0, 0.0, 0.0, 0.0, 1.708991299784801E9, 0.0, 2024-02-26 18:48:19.784
181.0, 187500.0, 187500.0, 34255.25537195866, -183511.062981017, 187500.0, -182956.89618073657, -185100.4284740005, -183416.7386194156, 0.06, 0.0, 0.986, 192.0, 0.0, 0.0, 0.0, 0.0, 0.0, 0.0, 0.0, 0.0, 0.0, 1.708991299787801E9, 0.0, 2024-02-26 18:48:19.787
182.0, 187500.0, 187500.0, 33271.37628452495, -183377.80188057447, 187500.0, -182881.52609843327, -184936.41137318747, -183251.4921726575, 0.06, 0.0, 0.986, 192.0, 0.0, 0.0, 0.0, 0.0, 0.0, 0.0, 0.0, 0.0, 0.0, 1.708991299791829E9, 0.0, 2024-02-26 18:48:19.791
183.0, 187500.0, 187500.0, 32934.20021941665, -183320.93904268017, 187500.0, -182847.19381894992, -184886.52227956324, -183201.06663716634, 0.06, 0.0, 0.986, 192.0, 0.0, 0.0, 0.0, 0.0, 0.0, 0.0, 0.0, 0.0, 0.0, 1.708991299795831E9, 0.0, 2024-02-26 18:48:19.795
184.0, 187500.0, 187500.0, 33653.43465249952, -183427.62391896534, 187500.0, -182922.80977044223, -185005.09828389864, -183318.0109641565, 0.06, 0.0, 0.986, 192.0, 0.0, 0.0, 0.0, 0.0, 0.0, 0.0, 0.0, 0.0, 0.0, 1.708991299800867E9, 0.0, 2024-02-26 18:48:19.800
185.0, 187500.0, 187500.0, 34483.153758424975, -183513.32050720698, 187500.0, -183002.62784989213, -185102.8424624017, -183413.36350600285, 0.062, -0.002, 0.986, 192.0, 1.0, 240.0, 255.0, 240.0, 30.0, 208.0, 0.0, 0.0, 0.0, 1.708991299804865E9, 0.0, 2024-02-26 18:48:19.804
186.0, 187500.0, 187500.0, 33801.380849049194, -183338.03812718848, 187500.0, -182901.28504053177, -184931.78456208523, -183240.6962800856, 0.062, -0.002, 0.986, 192.0, 0.0, 0.0, 0.0, 0.0, 0.0, 0.0, 0.0, 0.0, 0.0, 1.708991299807851E9, 0.0, 2024-02-26 18:48:19.807
187.0, 187500.0, 187500.0, 33456.71694954836, -183246.37362317726, 187500.0, -182855.03928125373, -184846.89263664398, -183155.20085754406, 0.062, -0.002, 0.986, 192.0, 0.0, 0.0, 0.0, 0.0, 0.0, 0.0, 0.0, 0.0, 0.0, 1.708991299811866E9, 0.0, 2024-02-26 18:48:19.811
188.0, 187500.0, 187500.0, 33834.17085816513, -183325.3646880823, 187500.0, -182899.02751434178, -184936.7019458654, -183244.31726268737, 0.062, -0.002, 0.986, 192.0, 0.0, 0.0, 0.0, 0.0, 0.0, 0.0, 0.0, 0.0, 0.0, 1.708991299815862E9, 0.0, 2024-02-26 18:48:19.815
189.0, 187500.0, 187500.0, 34400.027620795685, -183467.43237584023, 187500.0, -183028.35470776018, -185090.86192737365, -183397.7843401175, 0.062, -0.002, 0.986, 192.0, 0.0, 0.0, 0.0, 0.0, 0.0, 0.0, 0.0, 0.0, 0.0, 1.708991299819863E9, 0.0, 2024-02-26 18:48:19.819
190.0, 187500.0, 187500.0, 33409.33125130311, -183357.77471754252, 187500.0, -182914.7184389494, -184986.34517030063, -183292.39586501074, 0.062, -0.002, 0.986, 192.0, 0.0, 0.0, 0.0, 0.0, 0.0, 0.0, 0.0, 0.0, 0.0, 1.708991299823861E9, 0.0, 2024-02-26 18:48:19.823
191.0, 187500.0, 187500.0, 32774.96639191704, -183258.5553239054, 187500.0, -182842.2093799364, -184892.87017498855, -183198.87616620972, 0.062, -0.002, 0.986, 192.0, 0.0, 0.0, 0.0, 0.0, 0.0, 0.0, 0.0, 0.0, 0.0, 1.70899129982885E9, 0.0, 2024-02-26 18:48:19.828
192.0, 187500.0, 187500.0, 33280.495796262716, -183294.04989410043, 187500.0, -182870.57374365017, -184939.07123077766, -183245.0995737433, 0.062, -0.002, 0.986, 192.0, 0.0, 0.0, 0.0, 0.0, 0.0, 0.0, 0.0, 0.0, 0.0, 1.708991299831863E9, 0.0, 2024-02-26 18:48:19.831
193.0, 187500.0, 187500.0, 34395.4678649268, -183426.81925616495, 187500.0, -182987.0486840068, -185084.71519764845, -183389.04480803548, 0.062, -0.002, 0.986, 192.0, 0.0, 0.0, 0.0, 0.0, 0.0, 0.0, 0.0, 0.0, 0.0, 1.708991299835915E9, 0.0, 2024-02-26 18:48:19.835
194.0, 187500.0, 187500.0, 33836.920122733136, -183337.14405741025, 187500.0, -182916.30541280573, -185001.54435653024, -183304.08582736086, 0.062, -0.002, 0.986, 192.0, 0.0, 0.0, 0.0, 0.0, 0.0, 0.0, 0.0, 0.0, 0.0, 1.708991299839909E9, 0.0, 2024-02-26 18:48:19.839
195.0, 187500.0, 187500.0, 32905.74644872504, -183205.15700640169, 187500.0, -182862.23654296834, -184874.45233755736, -183176.50207000997, 0.062, 0.0, 0.98, 192.0, 1.0, 240.0, 0.0, 0.0, 30.0, 160.0, 0.0, 0.0, 0.0, 1.708991299843872E9, 0.0, 2024-02-26 18:48:19.843
196.0, 187500.0, 187500.0, 33031.609121752874, -183213.6953727836, 187500.0, -182850.12189747358, -184891.37260811005, -183192.0812358953, 0.062, 0.0, 0.98, 192.0, 0.0, 0.0, 0.0, 0.0, 0.0, 0.0, 0.0, 0.0, 0.0, 1.708991299847896E9, 0.0, 2024-02-26 18:48:19.847
197.0, 187500.0, 187500.0, 34205.880368456885, -183338.19458939965, 187500.0, -182955.55507606926, -185026.8688829981, -183326.1246473938, 0.062, 0.0, 0.98, 192.0, 0.0, 0.0, 0.0, 0.0, 0.0, 0.0, 0.0, 0.0, 0.0, 1.708991299851893E9, 0.0, 2024-02-26 18:48:19.851
198.0, 187500.0, 187500.0, 34287.330125252025, -183273.0616060569, 187500.0, -182922.45214253094, -184968.5531817142, -183267.13839377623, 0.062, 0.0, 0.98, 192.0, 0.0, 0.0, 0.0, 0.0, 0.0, 0.0, 0.0, 0.0, 0.0, 1.708991299856935E9, 0.0, 2024-02-26 18:48:19.856
199.0, 187500.0, 187500.0, 33624.48914342989, -183101.93665050706, 187500.0, -182870.2161157389, -184802.1220925, -183099.83558652826, 0.062, 0.0, 0.98, 192.0, 0.0, 0.0, 0.0, 0.0, 0.0, 0.0, 0.0, 0.0, 0.0, 1.708991299859907E9, 0.0, 2024-02-26 18:48:19.859
200.0, 187500.0, 187500.0, 33699.814522244276, -183076.70153101702, 187500.0, -182849.0043102508, -184784.75478705822, -183081.77537700837, 0.062, 0.0, 0.98, 192.0, 0.0, 0.0, 0.0, 0.0, 0.0, 0.0, 0.0, 0.0, 0.0, 1.70899129986391E9, 0.0, 2024-02-26 18:48:19.863
201.0, 187500.0, 187500.0, 34566.99515187683, -183205.78285524642, 187500.0, -182947.44139283197, -184925.3025561932, -183221.51848334295, 0.062, 0.0, 0.98, 192.0, 0.0, 0.0, 0.0, 0.0, 0.0, 0.0, 0.0, 0.0, 0.0, 1.708991299867905E9, 0.0, 2024-02-26 18:48:19.867
202.0, 187500.0, 187500.0, 34577.36636130409, -183222.18903567662, 187500.0, -182960.56186682725, -184950.71648963887, -183245.5466086324, 0.062, 0.0, 0.98, 192.0, 0.0, 0.0, 0.0, 0.0, 0.0, 0.0, 0.0, 0.0, 0.0, 1.708991299871898E9, 0.0, 2024-02-26 18:48:19.871
203.0, 187500.0, 187500.0, 33520.4641247349, -183071.1135949032, 187500.0, -182869.85848782762, -184804.96076404583, -183097.9133365051, 0.062, 0.0, 0.98, 192.0, 0.0, 0.0, 0.0, 0.0, 0.0, 0.0, 0.0, 0.0, 0.0, 1.708991299875899E9, 0.0, 2024-02-26 18:48:19.875
204.0, 187500.0, 187500.0, 33378.932878843894, -183045.36438529068, 187500.0, -182844.73512705986, -184786.58763010355, -183078.3108566178, 0.062, 0.0, 0.98, 192.0, 0.0, 0.0, 0.0, 0.0, 0.0, 0.0, 0.0, 0.0, 0.0, 1.708991299879893E9, 0.0, 2024-02-26 18:48:19.879
205.0, 187500.0, 187500.0, 34205.16511263432, -183176.14444209868, 187500.0, -182951.39765160056, -184928.92353879494, -183219.84210250882, 0.06, 0.002, 0.98, 192.0, 1.0, 224.0, 0.0, 16.0, 30.0, 160.0, 0.0, 0.0, 0.0, 1.70899129988493E9, 0.0, 2024-02-26 18:48:19.884
206.0, 187500.0, 187500.0, 34546.81152663368, -183256.52131515997, 187500.0, -183020.48689371193, -185019.33634511667, -183310.43372278617, 0.06, 0.002, 0.98, 192.0, 0.0, 0.0, 0.0, 0.0, 0.0, 0.0, 0.0, 0.0, 0.0, 1.708991299887934E9, 0.0, 2024-02-26 18:48:19.887
207.0, 187500.0, 187500.0, 33370.50627118424, -183129.00461304243, 187500.0, -182893.37252299458, -184897.6310965575, -183188.30379108238, 0.06, 0.002, 0.98, 192.0, 0.0, 0.0, 0.0, 0.0, 0.0, 0.0, 0.0, 0.0, 0.0, 1.708991299890948E9, 0.0, 2024-02-26 18:48:19.890
208.0, 187500.0, 187500.0, 32894.8611491753, -183077.72971126196, 187500.0, -182849.54075211773, -184853.9334361474, -183143.42148821612, 0.06, 0.002, 0.98, 192.0, 0.0, 0.0, 0.0, 0.0, 0.0, 0.0, 0.0, 0.0, 0.0, 1.708991299895939E9, 0.0, 2024-02-26 18:48:19.895
209.0, 187500.0, 187500.0, 33562.01601767731, -183173.59634323078, 187500.0, -182928.15183736704, -184961.3112165107, -183249.3464051898, 0.06, 0.002, 0.98, 192.0, 0.0, 0.0, 0.0, 0.0, 0.0, 0.0, 0.0, 0.0, 0.0, 1.708991299899949E9, 0.0, 2024-02-26 18:48:19.899
210.0, 187500.0, 187500.0, 34386.460111911314, -183267.8089461099, 187500.0, -183011.12151278515, -185064.82214508322, -183352.8349820179, 0.06, 0.002, 0.98, 192.0, 0.0, 0.0, 0.0, 0.0, 0.0, 0.0, 0.0, 0.0, 0.0, 1.708991299903934E9, 0.0, 2024-02-26 18:48:19.903
211.0, 187500.0, 187500.0, 33578.89158474107, -183122.8802350617, 187500.0, -182908.05761910172, -184924.22967245933, -183213.0918756833, 0.06, 0.002, 0.98, 192.0, 0.0, 0.0, 0.0, 0.0, 0.0, 0.0, 0.0, 0.0, 0.0, 1.708991299907935E9, 0.0, 2024-02-26 18:48:19.907
212.0, 187500.0, 187500.0, 33144.82070741901, -183023.25851002437, 187500.0, -182859.88960980054, -184830.1735317914, -183117.80638907032, 0.06, 0.002, 0.98, 192.0, 0.0, 0.0, 0.0, 0.0, 0.0, 0.0, 0.0, 0.0, 0.0, 1.708991299912929E9, 0.0, 2024-02-26 18:48:19.912
213.0, 187500.0, 187500.0, 33715.95248174101, -183069.92895244705, 187500.0, -182881.95078157794, -184886.49992781878, -183172.34464554128, 0.06, 0.002, 0.98, 192.0, 0.0, 0.0, 0.0, 0.0, 0.0, 0.0, 0.0, 0.0, 0.0, 1.708991299915926E9, 0.0, 2024-02-26 18:48:19.915
214.0, 187500.0, 187500.0, 34727.547732299296, -183173.55163974187, 187500.0, -182972.36358789966, -185001.49965304133, -183285.73504516305, 0.06, 0.002, 0.98, 192.0, 0.0, 0.0, 0.0, 0.0, 0.0, 0.0, 0.0, 0.0, 0.0, 1.708991299918924E9, 0.0, 2024-02-26 18:48:19.918
215.0, 187500.0, 187500.0, 34106.37040214186, -183040.02231836587, 187500.0, -182905.19659581146, -184873.11123289005, -183155.71494766654, 0.06, 0.0, 0.98, 192.0, 1.0, 224.0, 0.0, 0.0, 30.0, 160.0, 0.0, 0.0, 0.0, 1.708991299923987E9, 0.0, 2024-02-26 18:48:19.923
216.0, 187500.0, 187500.0, 33503.2085780154, -182918.76410469582, 187500.0, -182865.90222905902, -184756.6586442779, -183038.5023997429, 0.06, 0.0, 0.98, 192.0, 0.0, 0.0, 0.0, 0.0, 0.0, 0.0, 0.0, 0.0, 0.0, 1.708991299927983E9, 0.0, 2024-02-26 18:48:19.927
217.0, 187500.0, 187500.0, 33870.29127720491, -182947.50844806535, 187500.0, -182858.8167260667, -184795.70714184133, -183075.42748158306, 0.06, 0.0, 0.98, 192.0, 0.0, 0.0, 0.0, 0.0, 0.0, 0.0, 0.0, 0.0, 0.0, 1.708991299931981E9, 0.0, 2024-02-26 18:48:19.931
218.0, 187500.0, 187500.0, 34916.06234503536, -183080.18840315205, 187500.0, -182974.86698327865, -184939.56296915567, -183218.45629435257, 0.06, 0.0, 0.98, 192.0, 0.0, 0.0, 0.0, 0.0, 0.0, 0.0, 0.0, 0.0, 0.0, 1.708991299935986E9, 0.0, 2024-02-26 18:48:19.935
219.0, 187500.0, 187500.0, 34456.018740656225, -183001.1079312692, 187500.0, -182918.13825585108, -184870.3396165776, -183148.36122374074, 0.06, 0.0, 0.98, 192.0, 0.0, 0.0, 0.0, 0.0, 0.0, 0.0, 0.0, 0.0, 0.0, 1.708991299940987E9, 0.0, 2024-02-26 18:48:19.940
220.0, 187500.0, 187500.0, 33587.98874473438, -182751.34953872557, 187500.0, -182869.99259829434, -184743.47111504927, -183020.53159720084, 0.06, 0.0, 0.98, 192.0, 0.0, 0.0, 0.0, 0.0, 0.0, 0.0, 0.0, 0.0, 0.0, 1.70899129994399E9, 0.0, 2024-02-26 18:48:19.943
221.0, 187500.0, 187500.0, 33703.68137403505, -182779.646847206, 187500.0, -182860.85073481212, -184763.11829842548, -183039.73174568795, 0.06, 0.0, 0.98, 192.0, 0.0, 0.0, 0.0, 0.0, 0.0, 0.0, 0.0, 0.0, 0.0, 1.708991299946997E9, 0.0, 2024-02-26 18:48:19.946
222.0, 187500.0, 187500.0, 34685.749970167875, -183309.87492917478, 187500.0, -182986.0428555063, -184921.1004282356, -183197.02097141993, 0.06, 0.0, 0.98, 192.0, 0.0, 0.0, 0.0, 0.0, 0.0, 0.0, 0.0, 0.0, 0.0, 1.708991299952004E9, 0.0, 2024-02-26 18:48:19.952
223.0, 187500.0, 187500.0, 34449.313217319635, -183527.9608998252, 187500.0, -182963.04291046178, -184909.43281762992, -183184.25812533597, 0.06, 0.0, 0.98, 192.0, 0.0, 0.0, 0.0, 0.0, 0.0, 0.0, 0.0, 0.0, 0.0, 1.708991299955989E9, 0.0, 2024-02-26 18:48:19.955
224.0, 187500.0, 187500.0, 33409.71123095885, -183398.544299429, 187500.0, -182877.63689489805, -184776.6634555654, -183049.34299580372, 0.06, 0.0, 0.98, 192.0, 0.0, 0.0, 0.0, 0.0, 0.0, 0.0, 0.0, 0.0, 0.0, 1.708991299959997E9, 0.0, 2024-02-26 18:48:19.959
225.0, 187500.0, 187500.0, 33347.43927090636, -183392.9340115707, 187500.0, -182873.23360124035, -184779.05509222212, -183051.01937663788, 0.058, -0.006, 0.982, 192.0, 1.0, 208.0, 255.0, 208.0, 30.0, 176.0, 0.0, 0.0, 0.0, 1.708991299963988E9, 0.0, 2024-02-26 18:48:19.963
226.0, 187500.0, 187500.0, 34304.965651627266, -183541.30489126503, 187500.0, -182999.92328881304, -184940.18881800043, -183211.37079136024, 0.058, -0.006, 0.982, 192.0, 0.0, 0.0, 0.0, 0.0, 0.0, 0.0, 0.0, 0.0, 0.0, 1.708991299967986E9, 0.0, 2024-02-26 18:48:19.967
227.0, 187500.0, 187500.0, 34535.03215730574, -183560.25917056313, 187500.0, -183010.92034708505, -184969.6037137036, -183239.13165797375, 0.058, -0.006, 0.982, 192.0, 0.0, 0.0, 0.0, 0.0, 0.0, 0.0, 0.0, 0.0, 0.0, 1.708991299971084E9, 0.0, 2024-02-26 18:48:19.971
228.0, 187500.0, 187500.0, 33536.982063887364, -183399.81834886293, 187500.0, -182884.27536300127, -184812.51565367173, -183081.84243224174, 0.058, -0.006, 0.982, 192.0, 0.0, 0.0, 0.0, 0.0, 0.0, 0.0, 0.0, 0.0, 0.0, 1.708991299977079E9, 0.0, 2024-02-26 18:48:19.977
229.0, 187500.0, 187500.0, 33347.059291250625, -183360.34516815486, 187500.0, -182847.52909511677, -184780.53030735618, -183048.8065539368, 0.058, -0.006, 0.982, 192.0, 0.0, 0.0, 0.0, 0.0, 0.0, 0.0, 0.0, 0.0, 0.0, 1.708991299980087E9, 0.0, 2024-02-26 18:48:19.980
230.0, 187500.0, 187500.0, 34225.25933089964, -183447.11464013037, 187500.0, -182912.63972671508, -184877.29100910318, -183145.20962777254, 0.058, -0.006, 0.982, 192.0, 0.0, 0.0, 0.0, 0.0, 0.0, 0.0, 0.0, 0.0, 0.0, 1.70899129998409E9, 0.0, 2024-02-26 18:48:19.984
231.0, 187500.0, 187500.0, 34859.91476296363, -183494.43328314225, 187500.0, -182961.52299183884, -184934.33266095314, -183201.96070694455, 0.058, -0.006, 0.982, 192.0, 0.0, 0.0, 0.0, 0.0, 0.0, 0.0, 0.0, 0.0, 0.0, 1.708991299988084E9, 0.0, 2024-02-26 18:48:19.988
232.0, 187500.0, 187500.0, 33987.36971466181, -183307.48329251807, 187500.0, -182878.10628153163, -184751.74126049774, -183018.02820182184, 0.058, -0.006, 0.982, 192.0, 0.0, 0.0, 0.0, 0.0, 0.0, 0.0, 0.0, 0.0, 0.0, 1.708991299992095E9, 0.0, 2024-02-26 18:48:19.992
233.0, 187500.0, 187500.0, 33698.51812106587, -183208.8897477257, 187500.0, -182858.2132289664, -184659.0932797305, -182924.3743925541, 0.058, -0.006, 0.982, 192.0, 0.0, 0.0, 0.0, 0.0, 0.0, 0.0, 0.0, 0.0, 0.0, 1.708991299995092E9, 0.0, 2024-02-26 18:48:19.995
234.0, 187500.0, 187500.0, 34340.63903577793, -183283.6116294398, 187500.0, -182901.0615230872, -184743.85109470502, -183009.13220752863, 0.058, -0.006, 0.982, 192.0, 0.0, 0.0, 0.0, 0.0, 0.0, 0.0, 0.0, 0.0, 0.0, 1.708991299999092E9, 0.0, 2024-02-26 18:48:19.999
235.0, 187500.0, 187500.0, 35046.976512310095, -183381.6240288763, 187500.0, -182983.85238454968, -184852.0335378687, -183116.6664501031, 0.064, -0.002, 0.982, 192.0, 2.0, 0.0, 255.0, 240.0, 30.0, 176.0, 0.0, 0.0, 0.0, 1.708991300003081E9, 0.0, 2024-02-26 18:48:20.003
236.0, 187500.0, 187500.0, 34100.49189335012, -183236.0471172389, 187500.0, -182904.68250568898, -184712.08926583402, -182974.0399687338, 0.064, -0.002, 0.982, 192.0, 0.0, 0.0, 0.0, 0.0, 0.0, 0.0, 0.0, 0.0, 0.0, 1.708991300008095E9, 0.0, 2024-02-26 18:48:20.008
237.0, 187500.0, 187500.0, 33536.82560167618, -183141.0298515594, 187500.0, -182858.43674641094, -184624.33631710248, -182885.10237754614, 0.064, -0.002, 0.982, 192.0, 0.0, 0.0, 0.0, 0.0, 0.0, 0.0, 0.0, 0.0, 0.0, 1.708991300012079E9, 0.0, 2024-02-26 18:48:20.012
238.0, 187500.0, 187500.0, 34074.27329710404, -183196.5515847864, 187500.0, -182877.10045303113, -184689.40224521188, -182949.65421553305, 0.064, -0.002, 0.982, 192.0, 0.0, 0.0, 0.0, 0.0, 0.0, 0.0, 0.0, 0.0, 0.0, 1.708991300016085E9, 0.0, 2024-02-26 18:48:20.016
239.0, 187500.0, 187500.0, 35161.52920264354, -183334.0818684199, 187500.0, -183003.32075397024, -184837.8178283951, -183097.82392952728, 0.064, -0.002, 0.982, 192.0, 0.0, 0.0, 0.0, 0.0, 0.0, 0.0, 0.0, 0.0, 0.0, 1.708991300020084E9, 0.0, 2024-02-26 18:48:20.020
240.0, 187500.0, 187500.0, 34589.838634710155, -183206.7886837469, 187500.0, -182927.10130537764, -184715.12910307993, -182984.25471594988, 0.064, -0.002, 0.982, 192.0, 0.0, 0.0, 0.0, 0.0, 0.0, 0.0, 0.0, 0.0, 0.0, 1.70899130002309E9, 0.0, 2024-02-26 18:48:20.023
241.0, 187500.0, 187500.0, 33901.96369909808, -183060.8094407093, 187500.0, -182862.43770866844, -184572.815546133, -182875.69229313044, 0.064, -0.002, 0.982, 192.0, 0.0, 0.0, 0.0, 0.0, 0.0, 0.0, 0.0, 0.0, 0.0, 1.708991300027085E9, 0.0, 2024-02-26 18:48:20.027
242.0, 187500.0, 187500.0, 34129.72797509765, -183085.95515322153, 187500.0, -182852.73705157483, -184606.81254944953, -182904.79426441126, 0.064, -0.002, 0.982, 192.0, 0.0, 0.0, 0.0, 0.0, 0.0, 0.0, 0.0, 0.0, 0.0, 1.708991300031095E9, 0.0, 2024-02-26 18:48:20.031
243.0, 187500.0, 187500.0, 35123.26301613606, -183215.61762280675, 187500.0, -182967.06622446375, -184747.87440870696, -183043.88917015662, 0.064, -0.002, 0.982, 192.0, 0.0, 0.0, 0.0, 0.0, 0.0, 0.0, 0.0, 0.0, 0.0, 1.70899130003508E9, 0.0, 2024-02-26 18:48:20.035
244.0, 187500.0, 187500.0, 34768.45142465251, -183130.41277294312, 187500.0, -182929.89527343455, -184669.57624788003, -182975.42577689, 0.064, -0.002, 0.982, 192.0, 0.0, 0.0, 0.0, 0.0, 0.0, 0.0, 0.0, 0.0, 0.0, 1.70899130004008E9, 0.0, 2024-02-26 18:48:20.040
245.0, 187500.0, 187500.0, 34007.5756916494, -182976.72217806842, 187500.0, -182877.52513617577, -184520.22189142965, -182878.2180402539, 0.064, 0.002, 0.978, 192.0, 2.0, 0.0, 0.0, 16.0, 30.0, 144.0, 0.0, 0.0, 0.0, 1.708991300044072E9, 0.0, 2024-02-26 18:48:20.044
246.0, 187500.0, 187500.0, 34194.05629564003, -182969.74843379838, 187500.0, -182848.87019978408, -184521.96532749716, -182879.15681352103, 0.064, 0.002, 0.978, 192.0, 0.0, 0.0, 0.0, 0.0, 0.0, 0.0, 0.0, 0.0, 0.0, 1.70899130004808E9, 0.0, 2024-02-26 18:48:20.048
247.0, 187500.0, 187500.0, 35245.95174145124, -183099.05327547234, 187500.0, -182954.79511675777, -184661.75313732066, -183013.98253607543, 0.064, 0.002, 0.978, 192.0, 0.0, 0.0, 0.0, 0.0, 0.0, 0.0, 0.0, 0.0, 0.0, 1.708991300051074E9, 0.0, 2024-02-26 18:48:20.051
248.0, 187500.0, 187500.0, 35201.941156618734, -183067.8725919572, 187500.0, -182940.80292472875, -184638.19439866478, -182997.1963759895, 0.064, 0.002, 0.978, 192.0, 0.0, 0.0, 0.0, 0.0, 0.0, 0.0, 0.0, 0.0, 0.0, 1.708991300055086E9, 0.0, 2024-02-26 18:48:20.055
249.0, 187500.0, 187500.0, 34294.61679394446, -182897.64170618556, 187500.0, -182875.31231347471, -184472.05388212847, -182884.63299091256, 0.064, 0.002, 0.978, 192.0, 0.0, 0.0, 0.0, 0.0, 0.0, 0.0, 0.0, 0.0, 0.0, 1.708991300059102E9, 0.0, 2024-02-26 18:48:20.059
250.0, 187500.0, 187500.0, 34333.195904874316, -182865.8575255701, 187500.0, -182847.32792941667, -184447.6457771833, -182859.4649266559, 0.064, 0.002, 0.978, 192.0, 0.0, 0.0, 0.0, 0.0, 0.0, 0.0, 0.0, 0.0, 0.0, 1.708991300063102E9, 0.0, 2024-02-26 18:48:20.063
251.0, 187500.0, 187500.0, 35386.11953093047, -182979.4937943809, 187500.0, -182931.41519205752, -184572.70378741072, -182978.46561413596, 0.064, 0.002, 0.978, 192.0, 0.0, 0.0, 0.0, 0.0, 0.0, 0.0, 0.0, 0.0, 0.0, 1.708991300068126E9, 0.0, 2024-02-26 18:48:20.068
252.0, 187500.0, 187500.0, 35769.72016927245, -182985.4840618949, 187500.0, -182950.14595391107, -184600.64346797985, -183008.23813775042, 0.064, 0.002, 0.978, 192.0, 0.0, 0.0, 0.0, 0.0, 0.0, 0.0, 0.0, 0.0, 0.0, 1.70899130007211E9, 0.0, 2024-02-26 18:48:20.072
253.0, 187500.0, 187500.0, 34814.92070137509, -182684.40606408194, 187500.0, -182876.69812163094, -184438.5933206789, -182895.20536603994, 0.064, 0.002, 0.978, 192.0, 0.0, 0.0, 0.0, 0.0, 0.0, 0.0, 0.0, 0.0, 0.0, 1.708991300076108E9, 0.0, 2024-02-26 18:48:20.076
254.0, 187500.0, 187500.0, 34575.93584965895, -182693.83850024207, 187500.0, -182851.2171329519, -184376.18725015965, -182867.98094129335, 0.064, 0.002, 0.978, 192.0, 0.0, 0.0, 0.0, 0.0, 0.0, 0.0, 0.0, 0.0, 0.0, 1.7089913000791E9, 0.0, 2024-02-26 18:48:20.079
255.0, 187500.0, 187500.0, 35326.887408123905, -183102.964830752, 187500.0, -182883.58245892316, -184458.70989068865, -182936.3772793266, 0.064, 0.004, 0.978, 192.0, 2.0, 0.0, 0.0, 32.0, 30.0, 144.0, 0.0, 0.0, 0.0, 1.708991300083129E9, 0.0, 2024-02-26 18:48:20.083
0.0, 187500.0, 187500.0, 35909.95501398504, -183510.54889089454, 187500.0, -182930.7893432128, -184515.37156288285, -182993.97772478792, 0.064, 0.004, 0.978, 192.0, 0.0, 0.0, 0.0, 0.0, 0.0, 0.0, 0.0, 0.0, 0.0, 1.708991300087105E9, 0.0, 2024-02-26 18:48:20.087
1.0, 187500.0, 187500.0, 35011.4148868817, -183397.67258139522, 187500.0, -182869.72437736086, -184357.99293017303, -182893.6630956725, 0.064, 0.004, 0.978, 192.0, 0.0, 0.0, 0.0, 0.0, 0.0, 0.0, 0.0, 0.0, 0.0, 1.708991300091112E9, 0.0, 2024-02-26 18:48:20.091
2.0, 187500.0, 187500.0, 34672.56244093924, -183310.27726057498, 187500.0, -182853.1170312306, -184277.37018792276, -182854.74870857582, 0.064, 0.004, 0.978, 192.0, 0.0, 0.0, 0.0, 0.0, 0.0, 0.0, 0.0, 0.0, 0.0, 1.708991300096101E9, 0.0, 2024-02-26 18:48:20.096
3.0, 187500.0, 187500.0, 35291.45989316224, -183377.3771974298, 187500.0, -182887.47166245838, -184354.72957548258, -182919.6805262185, 0.064, 0.004, 0.978, 192.0, 0.0, 0.0, 0.0, 0.0, 0.0, 0.0, 0.0, 0.0, 0.0, 1.70899130010012E9, 0.0, 2024-02-26 18:48:20.100
4.0, 187500.0, 187500.0, 36069.21119322911, -183479.09998644592, 187500.0, -182976.27514317931, -184467.62823672633, -183031.30513802829, 0.064, 0.004, 0.978, 192.0, 0.0, 0.0, 0.0, 0.0, 0.0, 0.0, 0.0, 0.0, 0.0, 1.708991300103149E9, 0.0, 2024-02-26 18:48:20.103
5.0, 187500.0, 187500.0, 35223.64470048484, -183334.84182773138, 187500.0, -182893.35017125015, -184328.62273795877, -182919.50171226283, 0.064, 0.004, 0.978, 192.0, 0.0, 0.0, 0.0, 0.0, 0.0, 0.0, 0.0, 0.0, 0.0, 1.708991300107153E9, 0.0, 2024-02-26 18:48:20.107
6.0, 187500.0, 187500.0, 34725.245502620404, -183225.45239036708, 187500.0, -182841.27060666928, -184225.2906233419, -182856.78271732124, 0.064, 0.004, 0.978, 192.0, 0.0, 0.0, 0.0, 0.0, 0.0, 0.0, 0.0, 0.0, 0.0, 1.708991300111155E9, 0.0, 2024-02-26 18:48:20.111
7.0, 187500.0, 187500.0, 35253.126651421386, -183270.42410021118, 187500.0, -182850.2113044514, -184279.3371414348, -182901.39679925406, 0.064, 0.004, 0.978, 192.0, 0.0, 0.0, 0.0, 0.0, 0.0, 0.0, 0.0, 0.0, 0.0, 1.708991300115143E9, 0.0, 2024-02-26 18:48:20.115
8.0, 187500.0, 187500.0, 36283.85499523342, -183384.82032833344, 187500.0, -182951.71057602295, -184404.19398596216, -183024.35374550268, 0.064, 0.004, 0.978, 192.0, 0.0, 0.0, 0.0, 0.0, 0.0, 0.0, 0.0, 0.0, 0.0, 1.708991300119144E9, 0.0, 2024-02-26 18:48:20.119
9.0, 187500.0, 187500.0, 35668.176194211985, -183275.49794620252, 187500.0, -182893.48428171687, -184300.23602250052, -182931.59400601315, 0.062, 0.004, 0.978, 192.0, 1.0, 240.0, 0.0, 32.0, 30.0, 144.0, 0.0, 0.0, 0.0, 1.708991300124165E9, 0.0, 2024-02-26 18:48:20.124
10.0, 187500.0, 187500.0, 34905.6911356081, -183149.56821794133, 187500.0, -182851.32889167417, -184181.34709374275, -182851.82063005219, 0.062, 0.004, 0.978, 192.0, 0.0, 0.0, 0.0, 0.0, 0.0, 0.0, 0.0, 0.0, 0.0, 1.708991300128147E9, 0.0, 2024-02-26 18:48:20.128
11.0, 187500.0, 187500.0, 35149.07928098193, -183172.8363839193, 187500.0, -182840.17537119097, -184214.24886158097, -182879.11211003212, 0.062, 0.004, 0.978, 192.0, 0.0, 0.0, 0.0, 0.0, 0.0, 0.0, 0.0, 0.0, 0.0, 1.708991300131166E9, 0.0, 2024-02-26 18:48:20.131
12.0, 187500.0, 187500.0, 36223.70645090419, -183313.22769084308, 187500.0, -182963.3781866286, -184365.6148750323, -183028.198245549, 0.062, 0.004, 0.978, 192.0, 0.0, 0.0, 0.0, 0.0, 0.0, 0.0, 0.0, 0.0, 0.0, 1.708991300135148E9, 0.0, 2024-02-26 18:48:20.135
13.0, 187500.0, 187500.0, 35955.865497096245, -183260.52227741748, 187500.0, -182920.99927914134, -184320.79962739942, -182984.41117816107, 0.062, 0.004, 0.978, 192.0, 0.0, 0.0, 0.0, 0.0, 0.0, 0.0, 0.0, 0.0, 0.0, 1.708991300139147E9, 0.0, 2024-02-26 18:48:20.139
14.0, 187500.0, 187500.0, 35104.59930951587, -183108.709229077, 187500.0, -182863.57764763566, -184173.7698523724, -182866.19280173694, 0.062, 0.004, 0.978, 192.0, 0.0, 0.0, 0.0, 0.0, 0.0, 0.0, 0.0, 0.0, 0.0, 1.708991300143203E9, 0.0, 2024-02-26 18:48:20.143
15.0, 187500.0, 187500.0, 35170.559307403484, -183099.34384815025, 187500.0, -182847.79731605022, -184171.95936107152, -182873.83709834065, 0.062, 0.004, 0.978, 192.0, 0.0, 0.0, 0.0, 0.0, 0.0, 0.0, 0.0, 0.0, 0.0, 1.708991300147165E9, 0.0, 2024-02-26 18:48:20.147
16.0, 187500.0, 187500.0, 36123.19065608867, -183236.15887596118, 187500.0, -182959.10900343765, -184320.44199948813, -183015.90478609857, 0.062, 0.004, 0.978, 192.0, 0.0, 0.0, 0.0, 0.0, 0.0, 0.0, 0.0, 0.0, 0.0, 1.708991300152164E9, 0.0, 2024-02-26 18:48:20.152
17.0, 187500.0, 187500.0, 36068.47358566208, -183205.9393174576, 187500.0, -182936.35492758214, -184296.7044468766, -182993.8883178101, 0.062, 0.004, 0.978, 192.0, 0.0, 0.0, 0.0, 0.0, 0.0, 0.0, 0.0, 0.0, 0.0, 1.70899130016696E9, 0.0, 2024-02-26 18:48:20.166
18.0, 187500.0, 187500.0, 35086.382637784794, -183038.0553648538, 187500.0, -182860.94014178994, -184133.62611933067, -182867.48920291534, 0.066, -0.002, 0.982, 192.0, 2.0, 16.0, 255.0, 240.0, 30.0, 176.0, 0.0, 0.0, 0.0, 1.708991300166976E9, 0.0, 2024-02-26 18:48:20.166
19.0, 187500.0, 187500.0, 35008.19623568013, -183009.04280055081, 187500.0, -182827.07724894016, -184112.34725860922, -182856.4697928989, 0.066, -0.002, 0.982, 192.0, 0.0, 0.0, 0.0, 0.0, 0.0, 0.0, 0.0, 0.0, 0.0, 1.708991300166989E9, 0.0, 2024-02-26 18:48:20.166
20.0, 187500.0, 187500.0, 35919.521560611916, -183128.2670054754, 187500.0, -182919.4793605184, -184242.00972819445, -182979.6279048476, 0.066, -0.002, 0.982, 192.0, 0.0, 0.0, 0.0, 0.0, 0.0, 0.0, 0.0, 0.0, 0.0, 1.70899130016721E9, 0.0, 2024-02-26 18:48:20.167
21.0, 187500.0, 187500.0, 36236.15637256579, -183159.17946805712, 187500.0, -182950.32476786672, -184282.4440339141, -183019.54812044482, 0.066, -0.002, 0.982, 192.0, 0.0, 0.0, 0.0, 0.0, 0.0, 0.0, 0.0, 0.0, 0.0, 1.7089913001712E9, 0.0, 2024-02-26 18:48:20.171
22.0, 187500.0, 187500.0, 35207.64085145484, -182990.200279975, 187500.0, -182865.1199180031, -184118.42693310106, -182882.57663042267, 0.066, -0.002, 0.982, 192.0, 0.0, 0.0, 0.0, 0.0, 0.0, 0.0, 0.0, 0.0, 0.0, 1.708991300175212E9, 0.0, 2024-02-26 18:48:20.175
23.0, 187500.0, 187500.0, 34919.99625205949, -182932.62218625812, 187500.0, -182825.3561646171, -184067.66612144306, -182846.03152823827, 0.066, -0.002, 0.982, 192.0, 0.0, 0.0, 0.0, 0.0, 0.0, 0.0, 0.0, 0.0, 0.0, 1.708991300180187E9, 0.0, 2024-02-26 18:48:20.180
24.0, 187500.0, 187500.0, 35664.84578428815, -183028.13119031565, 187500.0, -182892.03141832727, -184173.00989306092, -182944.80388698625, 0.066, -0.002, 0.982, 192.0, 0.0, 0.0, 0.0, 0.0, 0.0, 0.0, 0.0, 0.0, 0.0, 1.708991300184231E9, 0.0, 2024-02-26 18:48:20.184
25.0, 187500.0, 187500.0, 36315.1697892153, -183106.22818544248, 187500.0, -182960.5842185717, -184260.24875166998, -183031.46160023948, 0.066, -0.002, 0.982, 192.0, 0.0, 0.0, 0.0, 0.0, 0.0, 0.0, 0.0, 0.0, 0.0, 1.70899130018721E9, 0.0, 2024-02-26 18:48:20.187
26.0, 187500.0, 187500.0, 35381.78329250614, -182955.10804118015, 187500.0, -182871.28899947274, -184115.05181968832, -182888.7680636368, 0.066, -0.002, 0.982, 192.0, 0.0, 0.0, 0.0, 0.0, 0.0, 0.0, 0.0, 0.0, 0.0, 1.708991300191205E9, 0.0, 2024-02-26 18:48:20.191
27.0, 187500.0, 187500.0, 34916.84465609129, -182882.46487170042, 187500.0, -182828.26189139628, -184049.18122877853, -182835.1462286885, 0.066, -0.002, 0.982, 192.0, 0.0, 0.0, 0.0, 0.0, 0.0, 0.0, 0.0, 0.0, 0.0, 1.708991300195227E9, 0.0, 2024-02-26 18:48:20.195
28.0, 187500.0, 187500.0, 35414.416839410886, -182945.87677072012, 187500.0, -182865.83517382565, -184122.31613663628, -182906.00125861185, 0.064, -0.006, 0.986, 192.0, 2.0, 0.0, 255.0, 208.0, 30.0, 208.0, 0.0, 0.0, 0.0, 1.708991300199224E9, 0.0, 2024-02-26 18:48:20.199
29.0, 187500.0, 187500.0, 36229.2496835291, -183056.5626092628, 187500.0, -182965.21102967396, -184244.24490264, -183026.74538215942, 0.064, -0.006, 0.986, 192.0, 0.0, 0.0, 0.0, 0.0, 0.0, 0.0, 0.0, 0.0, 0.0, 1.708991300203266E9, 0.0, 2024-02-26 18:48:20.203
30.0, 187500.0, 187500.0, 35462.0707585896, -182853.83228705314, 187500.0, -182888.25397351434, -184110.00032544142, -182919.00997388482, 0.064, -0.006, 0.986, 192.0, 0.0, 0.0, 0.0, 0.0, 0.0, 0.0, 0.0, 0.0, 0.0, 1.708991300207266E9, 0.0, 2024-02-26 18:48:20.207
31.0, 187500.0, 187500.0, 34954.37323503175, -182638.78615364866, 187500.0, -182846.67972882747, -183997.10166419766, -182856.58155162114, 0.064, -0.006, 0.986, 192.0, 0.0, 0.0, 0.0, 0.0, 0.0, 0.0, 0.0, 0.0, 0.0, 1.708991300212243E9, 0.0, 2024-02-26 18:48:20.212
32.0, 187500.0, 187500.0, 35399.374115392464, -182915.63486047208, 187500.0, -182843.8634090261, -184040.46404844095, -182887.62812466957, 0.064, -0.006, 0.986, 192.0, 0.0, 0.0, 0.0, 0.0, 0.0, 0.0, 0.0, 0.0, 0.0, 1.708991300215254E9, 0.0, 2024-02-26 18:48:20.215
33.0, 187500.0, 187500.0, 36144.268351110026, -183450.4450500542, 187500.0, -182955.66683479154, -184179.35778848623, -183022.99028909093, 0.064, -0.006, 0.986, 192.0, 0.0, 0.0, 0.0, 0.0, 0.0, 0.0, 0.0, 0.0, 0.0, 1.708991300219265E9, 0.0, 2024-02-26 18:48:20.219
34.0, 187500.0, 187500.0, 35481.82970068809, -183479.4576143572, 187500.0, -182895.40653174004, -184086.12866236313, -182942.79222998527, 0.064, -0.006, 0.986, 192.0, 0.0, 0.0, 0.0, 0.0, 0.0, 0.0, 0.0, 0.0, 0.0, 1.70899130022327E9, 0.0, 2024-02-26 18:48:20.223
35.0, 187500.0, 187500.0, 34735.01321494737, -183345.95064472564, 187500.0, -182849.69721432892, -183958.679015479, -182854.43578415344, 0.064, -0.006, 0.986, 192.0, 0.0, 0.0, 0.0, 0.0, 0.0, 0.0, 0.0, 0.0, 0.0, 1.708991300227266E9, 0.0, 2024-02-26 18:48:20.227
36.0, 187500.0, 187500.0, 35003.36825887779, -183370.73872932658, 187500.0, -182845.3609759046, -183992.94423972897, -182879.80501411023, 0.064, -0.006, 0.986, 192.0, 0.0, 0.0, 0.0, 0.0, 0.0, 0.0, 0.0, 0.0, 0.0, 1.708991300231263E9, 0.0, 2024-02-26 18:48:20.231
37.0, 187500.0, 187500.0, 36132.28781608198, -183500.17768146726, 187500.0, -182956.85147724766, -184133.84963677524, -183019.45871346697, 0.064, -0.006, 0.986, 192.0, 0.0, 0.0, 0.0, 0.0, 0.0, 0.0, 0.0, 0.0, 0.0, 1.708991300235271E9, 0.0, 2024-02-26 18:48:20.235
38.0, 187500.0, 187500.0, 35938.87817131021, -183432.54130274552, 187500.0, -182914.4278662715, -184073.8352029127, -182968.45203261997, 0.058, 0.002, 0.982, 192.0, 1.0, 208.0, 0.0, 16.0, 30.0, 176.0, 0.0, 0.0, 0.0, 1.708991300240295E9, 0.0, 2024-02-26 18:48:20.240
39.0, 187500.0, 187500.0, 35017.09222997334, -183274.82739386885, 187500.0, -182856.916827788, -183921.86569236108, -182862.7729848353, 0.058, 0.002, 0.982, 192.0, 0.0, 0.0, 0.0, 0.0, 0.0, 0.0, 0.0, 0.0, 0.0, 1.708991300243284E9, 0.0, 2024-02-26 18:48:20.243
40.0, 187500.0, 187500.0, 34959.96117114558, -183268.14422227672, 187500.0, -182831.36878387557, -183924.10086680664, -182861.2754179568, 0.058, 0.002, 0.982, 192.0, 0.0, 0.0, 0.0, 0.0, 0.0, 0.0, 0.0, 0.0, 0.0, 1.708991300247311E9, 0.0, 2024-02-26 18:48:20.247
41.0, 187500.0, 187500.0, 35849.98528361145, -183404.17693903172, 187500.0, -182943.6862997635, -184071.33180753374, -183004.1477685151, 0.058, 0.002, 0.982, 192.0, 0.0, 0.0, 0.0, 0.0, 0.0, 0.0, 0.0, 0.0, 0.0, 1.708991300251291E9, 0.0, 2024-02-26 18:48:20.251
42.0, 187500.0, 187500.0, 35873.00758040042, -183401.02534306352, 187500.0, -182942.36754684063, -184076.15978433608, -183008.7969313618, 0.058, 0.002, 0.982, 192.0, 0.0, 0.0, 0.0, 0.0, 0.0, 0.0, 0.0, 0.0, 0.0, 1.708991300255318E9, 0.0, 2024-02-26 18:48:20.255
43.0, 187500.0, 187500.0, 34875.04689395987, -183241.16566671917, 187500.0, -182862.7729848353, -183922.13391329456, -182867.98094129335, 0.058, 0.002, 0.982, 192.0, 0.0, 0.0, 0.0, 0.0, 0.0, 0.0, 0.0, 0.0, 0.0, 1.708991300259292E9, 0.0, 2024-02-26 18:48:20.259
44.0, 187500.0, 187500.0, 34700.47976976392, -183225.67590781164, 187500.0, -182845.8080107937, -183914.71313413538, -182869.8137843387, 0.058, 0.002, 0.982, 192.0, 0.0, 0.0, 0.0, 0.0, 0.0, 0.0, 0.0, 0.0, 0.0, 1.708991300264295E9, 0.0, 2024-02-26 18:48:20.264
45.0, 187500.0, 187500.0, 35464.48474699077, -183363.13913621177, 187500.0, -182957.11969818114, -184063.2404760409, -183013.2002250195, 0.058, 0.002, 0.982, 192.0, 0.0, 0.0, 0.0, 0.0, 0.0, 0.0, 0.0, 0.0, 0.0, 1.708991300267309E9, 0.0, 2024-02-26 18:48:20.267
46.0, 187500.0, 187500.0, 35732.437459520996, -183415.01753509254, 187500.0, -182998.38101844562, -184124.48425584845, -183073.77345249336, 0.058, 0.002, 0.982, 192.0, 0.0, 0.0, 0.0, 0.0, 0.0, 0.0, 0.0, 0.0, 0.0, 1.708991300270308E9, 0.0, 2024-02-26 18:48:20.270
47.0, 187500.0, 187500.0, 34646.61206562663, -183263.3609489633, 187500.0, -182861.87891505705, -183977.0745011657, -182926.0731251327, 0.058, 0.002, 0.982, 192.0, 0.0, 0.0, 0.0, 0.0, 0.0, 0.0, 0.0, 0.0, 0.0, 1.708991300276292E9, 0.0, 2024-02-26 18:48:20.276
48.0, 187500.0, 187500.0, 34316.85677967749, -183218.45629435257, 187500.0, -182824.50679832778, -183939.27770129178, -182887.09168280265, 0.06, -0.002, 0.98, 192.0, 1.0, 224.0, 255.0, 240.0, 30.0, 160.0, 0.0, 0.0, 0.0, 1.708991300279338E9, 0.0, 2024-02-26 18:48:20.279
49.0, 187500.0, 187500.0, 35017.78513405146, -183323.80006597046, 187500.0, -182908.68346794648, -184054.56799919225, -183001.5996696472, 0.06, -0.002, 0.98, 192.0, 0.0, 0.0, 0.0, 0.0, 0.0, 0.0, 0.0, 0.0, 0.0, 1.708991300283347E9, 0.0, 2024-02-26 18:48:20.283
50.0, 187500.0, 187500.0, 35656.352121395124, -183423.80177066347, 187500.0, -182997.4869486674, -184164.69504412354, -183111.0114587559, 0.06, -0.002, 0.98, 192.0, 0.0, 0.0, 0.0, 0.0, 0.0, 0.0, 0.0, 0.0, 0.0, 1.708991300287346E9, 0.0, 2024-02-26 18:48:20.287
51.0, 187500.0, 187500.0, 34652.35646395165, -183286.62911494126, 187500.0, -182884.74474963485, -184032.46212392594, -182977.929172269, 0.06, -0.002, 0.98, 192.0, 0.0, 0.0, 0.0, 0.0, 0.0, 0.0, 0.0, 0.0, 0.0, 1.708991300292344E9, 0.0, 2024-02-26 18:48:20.292
52.0, 187500.0, 187500.0, 34100.62600381685, -183208.30860236986, 187500.0, -182830.7429350308, -183961.40592830253, -182905.8671481451, 0.06, -0.002, 0.98, 192.0, 0.0, 0.0, 0.0, 0.0, 0.0, 0.0, 0.0, 0.0, 0.0, 1.708991300295338E9, 0.0, 2024-02-26 18:48:20.295
53.0, 187500.0, 187500.0, 34681.59254569919, -183273.59804792382, 187500.0, -182873.43476694045, -184036.7983623503, -182980.90195428158, 0.06, -0.002, 0.98, 192.0, 0.0, 0.0, 0.0, 0.0, 0.0, 0.0, 0.0, 0.0, 0.0, 1.70899130029833E9, 0.0, 2024-02-26 18:48:20.298
54.0, 187500.0, 187500.0, 35894.264089377415, -183374.8290985619, 187500.0, -182967.42385237504, -184148.89236079366, -183092.10188294674, 0.06, -0.002, 0.98, 192.0, 0.0, 0.0, 0.0, 0.0, 0.0, 0.0, 0.0, 0.0, 0.0, 1.708991300303339E9, 0.0, 2024-02-26 18:48:20.303
55.0, 187500.0, 187500.0, 35607.491208015825, -183220.53500658693, 187500.0, -182892.41139798303, -184000.36501888814, -182950.63769228908, 0.06, -0.002, 0.98, 192.0, 0.0, 0.0, 0.0, 0.0, 0.0, 0.0, 0.0, 0.0, 0.0, 1.708991300307331E9, 0.0, 2024-02-26 18:48:20.307
56.0, 187500.0, 187500.0, 35302.0322682896, -183082.62474329767, 187500.0, -182856.9615312769, -183867.50624984578, -182852.7146998304, 0.06, -0.002, 0.98, 192.0, 0.0, 0.0, 0.0, 0.0, 0.0, 0.0, 0.0, 0.0, 0.0, 1.708991300311343E9, 0.0, 2024-02-26 18:48:20.311
57.0, 187500.0, 187500.0, 35619.27057734377, -183098.98622023896, 187500.0, -182859.1072987446, -183892.7190175914, -182871.5125169173, 0.06, -0.002, 0.98, 192.0, 0.0, 0.0, 0.0, 0.0, 0.0, 0.0, 0.0, 0.0, 0.0, 1.70899130031534E9, 0.0, 2024-02-26 18:48:20.315
58.0, 187500.0, 187500.0, 36324.13283874188, -183231.48736137003, 187500.0, -182969.3908058871, -184036.57484490573, -183012.64143140812, 0.062, 0.0, 0.98, 192.0, 1.0, 240.0, 0.0, 0.0, 30.0, 160.0, 0.0, 0.0, 0.0, 1.708991300320339E9, 0.0, 2024-02-26 18:48:20.320
59.0, 187500.0, 187500.0, 35520.29705289567, -183148.227113274, 187500.0, -182912.2150435704, -183959.68484397948, -182946.86024747614, 0.062, 0.0, 0.98, 192.0, 0.0, 0.0, 0.0, 0.0, 0.0, 0.0, 0.0, 0.0, 0.0, 1.708991300323333E9, 0.0, 2024-02-26 18:48:20.323
60.0, 187500.0, 187500.0, 34638.94541727846, -183010.60742266267, 187500.0, -182860.2248859674, -183827.5413307597, -182862.1247842461, 0.062, 0.0, 0.98, 192.0, 0.0, 0.0, 0.0, 0.0, 0.0, 0.0, 0.0, 0.0, 0.0, 1.708991300326331E9, 0.0, 2024-02-26 18:48:20.326
61.0, 187500.0, 187500.0, 34978.7589882325, -183016.03889656533, 187500.0, -182839.5048188573, -183841.35470883307, -182867.422147682, 0.062, 0.0, 0.98, 192.0, 0.0, 0.0, 0.0, 0.0, 0.0, 0.0, 0.0, 0.0, 0.0, 1.708991300331373E9, 0.0, 2024-02-26 18:48:20.331
62.0, 187500.0, 187500.0, 36241.67725344625, -183149.07647956331, 187500.0, -182953.87869523512, -183985.16583265853, -183009.35572497317, 0.062, 0.0, 0.98, 192.0, 0.0, 0.0, 0.0, 0.0, 0.0, 0.0, 0.0, 0.0, 0.0, 1.708991300335375E9, 0.0, 2024-02-26 18:48:20.335
63.0, 187500.0, 187500.0, 36106.583309958376, -183102.49544411845, 187500.0, -182924.3743925541, -183946.2737973063, -182973.97291350042, 0.062, 0.0, 0.98, 192.0, 0.0, 0.0, 0.0, 0.0, 0.0, 0.0, 0.0, 0.0, 0.0, 1.708991300339376E9, 0.0, 2024-02-26 18:48:20.339
64.0, 187500.0, 187500.0, 34993.421732595176, -182963.0876139507, 187500.0, -182856.24627545432, -183811.8280544076, -182859.53198188925, 0.062, 0.0, 0.98, 192.0, 0.0, 0.0, 0.0, 0.0, 0.0, 0.0, 0.0, 0.0, 0.0, 1.708991300343391E9, 0.0, 2024-02-26 18:48:20.343
65.0, 187500.0, 187500.0, 34705.35245005518, -182972.00595998837, 187500.0, -182842.4105456365, -183828.4354005379, -182873.30065647373, 0.062, 0.0, 0.98, 192.0, 0.0, 0.0, 0.0, 0.0, 0.0, 0.0, 0.0, 0.0, 0.0, 1.70899130034738E9, 0.0, 2024-02-26 18:48:20.347
66.0, 187500.0, 187500.0, 35515.26791039323, -183115.8617873027, 187500.0, -182967.60266633067, -183983.48945182437, -183026.34305075923, 0.062, 0.0, 0.98, 192.0, 0.0, 0.0, 0.0, 0.0, 0.0, 0.0, 0.0, 0.0, 0.0, 1.708991300351374E9, 0.0, 2024-02-26 18:48:20.351
67.0, 187500.0, 187500.0, 35714.533712212295, -183132.9385200666, 187500.0, -182980.11964322563, -184008.99279224788, -183051.42170803808, 0.062, 0.0, 0.98, 192.0, 0.0, 0.0, 0.0, 0.0, 0.0, 0.0, 0.0, 0.0, 0.0, 1.708991300354378E9, 0.0, 2024-02-26 18:48:20.354
68.0, 187500.0, 187500.0, 34864.45216708806, -182971.2907041658, 187500.0, -182871.15488900602, -183851.52475256025, -182892.45610147194, 0.062, -0.004, 0.982, 192.0, 1.0, 240.0, 255.0, 224.0, 30.0, 176.0, 0.0, 0.0, 0.0, 1.708991300359398E9, 0.0, 2024-02-26 18:48:20.359
69.0, 187500.0, 187500.0, 34771.513613642885, -182932.7786484693, 187500.0, -182835.63796706655, -183820.2323103228, -182860.49310690083, 0.062, -0.004, 0.982, 192.0, 0.0, 0.0, 0.0, 0.0, 0.0, 0.0, 0.0, 0.0, 0.0, 1.708991300363384E9, 0.0, 2024-02-26 18:48:20.363
70.0, 187500.0, 187500.0, 35585.87707112754, -183042.61512072268, 187500.0, -182922.34038380868, -183940.8646751481, -182980.56667811476, 0.062, -0.004, 0.982, 192.0, 0.0, 0.0, 0.0, 0.0, 0.0, 0.0, 0.0, 0.0, 0.0, 1.70899130036738E9, 0.0, 2024-02-26 18:48:20.367
71.0, 187500.0, 187500.0, 36010.4484570561, -183090.15728117913, 187500.0, -182972.184773944, -183997.70516129796, -183037.22835030896, 0.062, -0.004, 0.982, 192.0, 0.0, 0.0, 0.0, 0.0, 0.0, 0.0, 0.0, 0.0, 0.0, 1.708991300371435E9, 0.0, 2024-02-26 18:48:20.371
72.0, 187500.0, 187500.0, 35060.49931770555, -182896.90409861854, 187500.0, -182886.64464791355, -183827.6977929709, -182892.9701915944, 0.062, -0.004, 0.982, 192.0, 0.0, 0.0, 0.0, 0.0, 0.0, 0.0, 0.0, 0.0, 0.0, 1.708991300374426E9, 0.0, 2024-02-26 18:48:20.374
73.0, 187500.0, 187500.0, 34835.46195452952, -182683.6684565149, 187500.0, -182851.91003703, -183758.0274055037, -182861.1636592345, 0.062, -0.004, 0.982, 192.0, 0.0, 0.0, 0.0, 0.0, 0.0, 0.0, 0.0, 0.0, 0.0, 1.708991300378435E9, 0.0, 2024-02-26 18:48:20.378
74.0, 187500.0, 187500.0, 35597.0529433552, -182885.30354324623, 187500.0, -182893.08195031667, -183838.42663030943, -182937.40545957154, 0.062, -0.004, 0.982, 192.0, 0.0, 0.0, 0.0, 0.0, 0.0, 0.0, 0.0, 0.0, 0.0, 1.70899130038241E9, 0.0, 2024-02-26 18:48:20.382
75.0, 187500.0, 187500.0, 36303.14455069835, -183375.72316834013, 187500.0, -182963.93698024, -183931.54399771025, -183027.08065832625, 0.062, -0.004, 0.982, 192.0, 0.0, 0.0, 0.0, 0.0, 0.0, 0.0, 0.0, 0.0, 0.0, 1.708991300386409E9, 0.0, 2024-02-26 18:48:20.386
76.0, 187500.0, 187500.0, 35305.87676833591, -183376.5278311405, 187500.0, -182879.31327573222, -183779.01569354723, -182912.46091275942, 0.062, -0.004, 0.982, 192.0, 0.0, 0.0, 0.0, 0.0, 0.0, 0.0, 0.0, 0.0, 0.0, 1.708991300391422E9, 0.0, 2024-02-26 18:48:20.391
77.0, 187500.0, 187500.0, 34719.657566506576, -183282.60580093932, 187500.0, -182843.68459507046, -183690.52513724865, -182865.1199180031, 0.062, -0.004, 0.982, 192.0, 0.0, 0.0, 0.0, 0.0, 0.0, 0.0, 0.0, 0.0, 0.0, 1.708991300395415E9, 0.0, 2024-02-26 18:48:20.395
78.0, 187500.0, 187500.0, 35194.050990826014, -183343.2237319021, 187500.0, -182866.9080575595, -183761.15664972743, -182923.0332878868, 0.06, -0.008, 0.984, 192.0, 1.0, 224.0, 255.0, 192.0, 30.0, 192.0, 0.0, 0.0, 0.0, 1.708991300399425E9, 0.0, 2024-02-26 18:48:20.399
79.0, 187500.0, 187500.0, 36141.4296795642, -183459.8998379588, 187500.0, -182971.84949777718, -183888.6062966116, -183049.0077196369, 0.06, -0.008, 0.984, 192.0, 0.0, 0.0, 0.0, 0.0, 0.0, 0.0, 0.0, 0.0, 0.0, 1.708991300402459E9, 0.0, 2024-02-26 18:48:20.402
80.0, 187500.0, 187500.0, 35443.854086858526, -183333.9701096976, 187500.0, -182899.60865969764, -183769.69501610936, -182938.65715726104, 0.06, -0.008, 0.984, 192.0, 0.0, 0.0, 0.0, 0.0, 0.0, 0.0, 0.0, 0.0, 0.0, 1.70899130040647E9, 0.0, 2024-02-26 18:48:20.406
81.0, 187500.0, 187500.0, 34700.5915284862, -183214.9023669842, 187500.0, -182844.37749914857, -183656.7516513767, -182850.23365619584, 0.06, -0.008, 0.984, 192.0, 0.0, 0.0, 0.0, 0.0, 0.0, 0.0, 0.0, 0.0, 0.0, 1.708991300410473E9, 0.0, 2024-02-26 18:48:20.410
82.0, 187500.0, 187500.0, 34853.43275707159, -183265.998454809, 187500.0, -182859.44257491143, -183717.30252710613, -182904.4142847555, 0.06, -0.008, 0.984, 192.0, 0.0, 0.0, 0.0, 0.0, 0.0, 0.0, 0.0, 0.0, 0.0, 1.708991300414476E9, 0.0, 2024-02-26 18:48:20.414
83.0, 187500.0, 187500.0, 35678.92738329499, -183420.47136073964, 187500.0, -182998.6492393791, -183882.9960087533, -183069.2136966245, 0.06, -0.008, 0.984, 192.0, 0.0, 0.0, 0.0, 0.0, 0.0, 0.0, 0.0, 0.0, 0.0, 1.708991300419486E9, 0.0, 2024-02-26 18:48:20.419
84.0, 187500.0, 187500.0, 35081.88993714928, -183368.10122348086, 187500.0, -182940.3782415841, -183837.1972843644, -183022.16327454607, 0.06, -0.008, 0.984, 192.0, 0.0, 0.0, 0.0, 0.0, 0.0, 0.0, 0.0, 0.0, 0.0, 1.708991300423479E9, 0.0, 2024-02-26 18:48:20.423
85.0, 187500.0, 187500.0, 34144.41307120479, -183246.3065679439, 187500.0, -182838.36487989008, -183720.87880621897, -182905.3754097671, 0.06, -0.008, 0.984, 192.0, 0.0, 0.0, 0.0, 0.0, 0.0, 0.0, 0.0, 0.0, 0.0, 1.708991300427474E9, 0.0, 2024-02-26 18:48:20.427
86.0, 187500.0, 187500.0, 34184.087417612966, -183269.59708566632, 187500.0, -182845.49508637132, -183752.7300420678, -182936.3772793266, 0.06, -0.008, 0.984, 192.0, 0.0, 0.0, 0.0, 0.0, 0.0, 0.0, 0.0, 0.0, 0.0, 1.708991300430478E9, 0.0, 2024-02-26 18:48:20.430
87.0, 187500.0, 187500.0, 35103.14644612628, -183426.93101488723, 187500.0, -182989.3509136857, -183921.41865747198, -183105.3117639198, 0.06, -0.008, 0.984, 192.0, 0.0, 0.0, 0.0, 0.0, 0.0, 0.0, 0.0, 0.0, 0.0, 1.70899130043448E9, 0.0, 2024-02-26 18:48:20.434
88.0, 187500.0, 187500.0, 34874.39869337067, -183403.41697972023, 187500.0, -182963.5346488398, -183904.83366308614, -183087.65388580013, 0.062, -0.014, 0.984, 192.0, 1.0, 240.0, 255.0, 144.0, 30.0, 192.0, 0.0, 0.0, 0.0, 1.708991300438489E9, 0.0, 2024-02-26 18:48:20.438
89.0, 187500.0, 187500.0, 33866.91616379216, -183259.6058558948, 187500.0, -182864.2258482249, -183766.49871665225, -182946.81554398724, 0.062, -0.014, 0.984, 192.0, 0.0, 0.0, 0.0, 0.0, 0.0, 0.0, 0.0, 0.0, 0.0, 1.708991300442478E9, 0.0, 2024-02-26 18:48:20.442
90.0, 187500.0, 187500.0, 33792.797779178356, -183261.32694021787, 187500.0, -182854.4581358979, -183777.74164411327, -182956.71736678094, 0.062, -0.014, 0.984, 192.0, 0.0, 0.0, 0.0, 0.0, 0.0, 0.0, 0.0, 0.0, 0.0, 1.708991300447521E9, 0.0, 2024-02-26 18:48:20.447
91.0, 187500.0, 187500.0, 34758.21432569198, -183399.10309304038, 187500.0, -182974.7775763008, -183927.654794175, -183105.64704008665, 0.062, -0.014, 0.984, 192.0, 0.0, 0.0, 0.0, 0.0, 0.0, 0.0, 0.0, 0.0, 0.0, 1.70899130045152E9, 0.0, 2024-02-26 18:48:20.451
92.0, 187500.0, 187500.0, 35143.40193789029, -183405.0933605544, 187500.0, -182980.9466577705, -183941.60228271512, -183118.70045884856, 0.062, -0.014, 0.984, 192.0, 0.0, 0.0, 0.0, 0.0, 0.0, 0.0, 0.0, 0.0, 0.0, 1.708991300455508E9, 0.0, 2024-02-26 18:48:20.455
93.0, 187500.0, 187500.0, 34455.23642960029, -183223.57484383284, 187500.0, -182888.52219444778, -183764.24119046226, -182940.40059332855, 0.062, -0.014, 0.984, 192.0, 0.0, 0.0, 0.0, 0.0, 0.0, 0.0, 0.0, 0.0, 0.0, 1.708991300458524E9, 0.0, 2024-02-26 18:48:20.458
94.0, 187500.0, 187500.0, 34505.34904066909, -183161.45934599155, 187500.0, -182854.48048764237, -183709.47941654676, -182884.67769440147, 0.062, -0.014, 0.984, 192.0, 0.0, 0.0, 0.0, 0.0, 0.0, 0.0, 0.0, 0.0, 0.0, 1.708991300462514E9, 0.0, 2024-02-26 18:48:20.462
95.0, 187500.0, 187500.0, 35306.50261718066, -183257.750661105, 187500.0, -182918.94291865148, -183816.76778993223, -182990.71437009744, 0.062, -0.014, 0.984, 192.0, 0.0, 0.0, 0.0, 0.0, 0.0, 0.0, 0.0, 0.0, 0.0, 1.708991300466507E9, 0.0, 2024-02-26 18:48:20.466
96.0, 187500.0, 187500.0, 35611.536873762234, -183328.38217358378, 187500.0, -182980.72314032592, -183896.83173857114, -183070.5100978029, 0.062, -0.014, 0.984, 192.0, 0.0, 0.0, 0.0, 0.0, 0.0, 0.0, 0.0, 0.0, 0.0, 1.708991300470501E9, 0.0, 2024-02-26 18:48:20.470
97.0, 187500.0, 187500.0, 34428.81666765412, -183178.60313398877, 187500.0, -182882.88955484505, -183751.61245484502, -182924.64261348758, 0.062, -0.014, 0.984, 192.0, 0.0, 0.0, 0.0, 0.0, 0.0, 0.0, 0.0, 0.0, 0.0, 1.708991300475504E9, 0.0, 2024-02-26 18:48:20.475
98.0, 187500.0, 187500.0, 34035.090689073884, -183127.88702581968, 187500.0, -182839.7506880463, -183707.53481477915, -182880.05088329923, 0.068, -0.006, 0.982, 192.0, 2.0, 32.0, 255.0, 208.0, 30.0, 176.0, 0.0, 0.0, 0.0, 1.708991300479501E9, 0.0, 2024-02-26 18:48:20.479
99.0, 187500.0, 187500.0, 34774.396988677625, -183214.63414605072, 187500.0, -182902.20146205445, -183804.69784792638, -182976.09632922368, 0.068, -0.006, 0.982, 192.0, 0.0, 0.0, 0.0, 0.0, 0.0, 0.0, 0.0, 0.0, 0.0, 1.708991300483504E9, 0.0, 2024-02-26 18:48:20.483
100.0, 187500.0, 187500.0, 35642.71755727739, -183302.52120524898, 187500.0, -182984.41117816107, -183903.3137444632, -183073.77345249336, 0.068, -0.006, 0.982, 192.0, 0.0, 0.0, 0.0, 0.0, 0.0, 0.0, 0.0, 0.0, 0.0, 1.708991300487537E9, 0.0, 2024-02-26 18:48:20.487
101.0, 187500.0, 187500.0, 34776.49805265642, -183139.15230502514, 187500.0, -182898.4687207304, -183744.45989661932, -182930.96815716842, 0.068, -0.006, 0.982, 192.0, 0.0, 0.0, 0.0, 0.0, 0.0, 0.0, 0.0, 0.0, 0.0, 1.708991300491541E9, 0.0, 2024-02-26 18:48:20.491
102.0, 187500.0, 187500.0, 34149.93395208525, -183036.3566322752, 187500.0, -182865.29873195873, -183647.14040126093, -182870.32787446116, 0.068, -0.006, 0.982, 192.0, 0.0, 0.0, 0.0, 0.0, 0.0, 0.0, 0.0, 0.0, 0.0, 1.708991300494539E9, 0.0, 2024-02-26 18:48:20.494
103.0, 187500.0, 187500.0, 34516.92724429694, -183096.63928707116, 187500.0, -182887.20344152494, -183717.0119544282, -182931.7281164799, 0.068, -0.006, 0.982, 192.0, 0.0, 0.0, 0.0, 0.0, 0.0, 0.0, 0.0, 0.0, 0.0, 1.708991300498541E9, 0.0, 2024-02-26 18:48:20.498
104.0, 187500.0, 187500.0, 35457.24278178725, -183223.53014034394, 187500.0, -182999.5880126462, -183855.77158400675, -183068.38668207964, 0.068, -0.006, 0.982, 192.0, 0.0, 0.0, 0.0, 0.0, 0.0, 0.0, 0.0, 0.0, 0.0, 1.708991300503549E9, 0.0, 2024-02-26 18:48:20.503
105.0, 187500.0, 187500.0, 34884.12170220872, -183113.00076401245, 187500.0, -182918.98762214038, -183749.55609435512, -182968.3849773866, 0.068, -0.006, 0.982, 192.0, 0.0, 0.0, 0.0, 0.0, 0.0, 0.0, 0.0, 0.0, 0.0, 1.708991300507554E9, 0.0, 2024-02-26 18:48:20.507
106.0, 187500.0, 187500.0, 34259.94923829428, -182980.6337333481, 187500.0, -182864.5611243917, -183621.9499852598, -182869.83613608315, 0.068, -0.006, 0.982, 192.0, 0.0, 0.0, 0.0, 0.0, 0.0, 0.0, 0.0, 0.0, 0.0, 1.708991300510555E9, 0.0, 2024-02-26 18:48:20.510
107.0, 187500.0, 187500.0, 34507.606566859075, -183011.18856801852, 187500.0, -182864.29290345823, -183662.6525119129, -182905.7106859339, 0.068, -0.006, 0.98, 192.0, 2.0, 32.0, 255.0, 208.0, 30.0, 160.0, 0.0, 0.0, 0.0, 1.708991300514534E9, 0.0, 2024-02-26 18:48:20.514
108.0, 187500.0, 187500.0, 35380.39748434991, -183157.30192152286, 187500.0, -182994.38005618812, -183820.85815916755, -183060.63062675364, 0.068, -0.006, 0.98, 192.0, 0.0, 0.0, 0.0, 0.0, 0.0, 0.0, 0.0, 0.0, 0.0, 1.708991300518535E9, 0.0, 2024-02-26 18:48:20.518
109.0, 187500.0, 187500.0, 34823.74964043494, -183088.03386545586, 187500.0, -182937.47251480492, -183759.10028923754, -183002.13611151412, 0.068, -0.006, 0.98, 192.0, 0.0, 0.0, 0.0, 0.0, 0.0, 0.0, 0.0, 0.0, 0.0, 1.708991300522578E9, 0.0, 2024-02-26 18:48:20.522
110.0, 187500.0, 187500.0, 33937.68178673766, -182933.69506999195, 187500.0, -182866.5727813927, -183608.8965664979, -182886.04115081325, 0.068, -0.006, 0.98, 192.0, 0.0, 0.0, 0.0, 0.0, 0.0, 0.0, 0.0, 0.0, 0.0, 1.708991300526608E9, 0.0, 2024-02-26 18:48:20.526
111.0, 187500.0, 187500.0, 34180.06410361101, -182941.20525612895, 187500.0, -182853.74288007533, -183623.98399400522, -182900.99446785386, 0.068, -0.006, 0.98, 192.0, 0.0, 0.0, 0.0, 0.0, 0.0, 0.0, 0.0, 0.0, 0.0, 1.708991300530596E9, 0.0, 2024-02-26 18:48:20.530
112.0, 187500.0, 187500.0, 35368.9980946777, -183073.84050772674, 187500.0, -182965.70276805197, -183767.57160038612, -183040.6034637217, 0.068, -0.006, 0.98, 192.0, 0.0, 0.0, 0.0, 0.0, 0.0, 0.0, 0.0, 0.0, 0.0, 1.708991300535589E9, 0.0, 2024-02-26 18:48:20.535
113.0, 187500.0, 187500.0, 35368.10402489949, -183044.26914981237, 187500.0, -182945.80971548674, -183745.9127600089, -183018.78816113333, 0.068, -0.006, 0.98, 192.0, 0.0, 0.0, 0.0, 0.0, 0.0, 0.0, 0.0, 0.0, 0.0, 1.708991300538587E9, 0.0, 2024-02-26 18:48:20.538
114.0, 187500.0, 187500.0, 34297.678982934834, -182841.98586249186, 187500.0, -182877.03339779776, -183593.1385866569, -182877.18986000895, 0.068, -0.006, 0.98, 192.0, 0.0, 0.0, 0.0, 0.0, 0.0, 0.0, 0.0, 0.0, 0.0, 1.708991300542593E9, 0.0, 2024-02-26 18:48:20.542
115.0, 187500.0, 187500.0, 34049.708729947655, -182697.25831714374, 187500.0, -182841.13649620255, -183576.48653703768, -182864.40466218052, 0.068, -0.006, 0.98, 192.0, 0.0, 0.0, 0.0, 0.0, 0.0, 0.0, 0.0, 0.0, 0.0, 1.708991300546591E9, 0.0, 2024-02-26 18:48:20.546
116.0, 187500.0, 187500.0, 34820.32982353328, -183065.7715279784, 187500.0, -182932.62218625812, -183702.39391355444, -182987.1827944735, 0.068, -0.006, 0.98, 192.0, 0.0, 0.0, 0.0, 0.0, 0.0, 0.0, 0.0, 0.0, 0.0, 1.708991300550585E9, 0.0, 2024-02-26 18:48:20.550
117.0, 187500.0, 187500.0, 34989.55488080441, -183461.6432740263, 187500.0, -182957.05264294776, -183738.357870383, -183021.24685302342, 0.064, -0.004, 0.986, 192.0, 2.0, 0.0, 255.0, 224.0, 30.0, 208.0, 0.0, 0.0, 0.0, 1.708991300554587E9, 0.0, 2024-02-26 18:48:20.554
118.0, 187500.0, 187500.0, 33948.52238279848, -183366.02251124653, 187500.0, -182880.07323504367, -183591.26104012266, -182891.80790088273, 0.064, -0.004, 0.986, 192.0, 0.0, 0.0, 0.0, 0.0, 0.0, 0.0, 0.0, 0.0, 0.0, 1.708991300559594E9, 0.0, 2024-02-26 18:48:20.559
119.0, 187500.0, 187500.0, 33705.402458358105, -183318.525054279, 187500.0, -182862.30359820172, -183551.56434197002, -182875.08879603015, 0.064, -0.004, 0.986, 192.0, 0.0, 0.0, 0.0, 0.0, 0.0, 0.0, 0.0, 0.0, 0.0, 1.708991300563585E9, 0.0, 2024-02-26 18:48:20.563
120.0, 187500.0, 187500.0, 34505.505502880274, -183429.70263119967, 187500.0, -182945.20621838645, -183674.6106951965, -182991.92136429803, 0.064, -0.004, 0.986, 192.0, 0.0, 0.0, 0.0, 0.0, 0.0, 0.0, 0.0, 0.0, 0.0, 1.708991300566595E9, 0.0, 2024-02-26 18:48:20.566
121.0, 187500.0, 187500.0, 35163.227935222145, -183509.25248971613, 187500.0, -183013.91548084206, -183765.00114977374, -183080.72484501897, 0.064, -0.004, 0.986, 192.0, 0.0, 0.0, 0.0, 0.0, 0.0, 0.0, 0.0, 0.0, 0.0, 1.708991300570647E9, 0.0, 2024-02-26 18:48:20.570
122.0, 187500.0, 187500.0, 34429.64368219896, -183355.29367390796, 187500.0, -182897.64170618556, -183615.78090379012, -182930.7222879794, 0.064, -0.004, 0.986, 192.0, 0.0, 0.0, 0.0, 0.0, 0.0, 0.0, 0.0, 0.0, 0.0, 1.70899130057464E9, 0.0, 2024-02-26 18:48:20.574
123.0, 187500.0, 187500.0, 34290.30290726458, -183292.57467896637, 187500.0, -182851.77592656328, -183559.96859788522, -182873.27830472926, 0.064, -0.004, 0.986, 192.0, 0.0, 0.0, 0.0, 0.0, 0.0, 0.0, 0.0, 0.0, 0.0, 1.708991300578631E9, 0.0, 2024-02-26 18:48:20.578
124.0, 187500.0, 187500.0, 35013.29243341595, -183390.40826444727, 187500.0, -182923.70384022043, -183667.88282011542, -182980.47727113692, 0.064, -0.004, 0.986, 192.0, 0.0, 0.0, 0.0, 0.0, 0.0, 0.0, 0.0, 0.0, 0.0, 1.708991300582631E9, 0.0, 2024-02-26 18:48:20.582
125.0, 187500.0, 187500.0, 35744.90973292705, -183521.54594916655, 187500.0, -183043.3080248008, -183809.36936251752, -183122.2320344725, 0.064, -0.004, 0.986, 192.0, 0.0, 0.0, 0.0, 0.0, 0.0, 0.0, 0.0, 0.0, 0.0, 1.708991300586637E9, 0.0, 2024-02-26 18:48:20.586
126.0, 187500.0, 187500.0, 34723.144438641604, -183417.87855838283, 187500.0, -182928.934148423, -183712.31808809258, -183023.95141410248, 0.064, -0.004, 0.986, 192.0, 0.0, 0.0, 0.0, 0.0, 0.0, 0.0, 0.0, 0.0, 0.0, 1.708991300591664E9, 0.0, 2024-02-26 18:48:20.591
127.0, 187500.0, 187500.0, 34044.70193918967, -183361.26158967754, 187500.0, -182861.2754179568, -183662.8983811019, -182973.8835065226, 0.066, -0.002, 0.984, 192.0, 2.0, 16.0, 255.0, 240.0, 30.0, 192.0, 0.0, 0.0, 0.0, 1.708991300594651E9, 0.0, 2024-02-26 18:48:20.594
128.0, 187500.0, 187500.0, 34533.51223868278, -183448.9474831757, 187500.0, -182937.49486654936, -183760.5755043716, -183070.957132692, 0.066, -0.002, 0.984, 192.0, 0.0, 0.0, 0.0, 0.0, 0.0, 0.0, 0.0, 0.0, 0.0, 1.708991300598642E9, 0.0, 2024-02-26 18:48:20.598
129.0, 187500.0, 187500.0, 35630.26763561578, -183604.40386586238, 187500.0, -183082.58003980876, -183928.72767790887, -183238.46110564008, 0.066, -0.002, 0.984, 192.0, 0.0, 0.0, 0.0, 0.0, 0.0, 0.0, 0.0, 0.0, 0.0, 1.708991300602645E9, 0.0, 2024-02-26 18:48:20.602
130.0, 187500.0, 187500.0, 35046.59653265435, -183525.2116352572, 187500.0, -182992.27899220932, -183855.25749388427, -183164.81210765985, 0.066, -0.002, 0.984, 192.0, 0.0, 0.0, 0.0, 0.0, 0.0, 0.0, 0.0, 0.0, 0.0, 1.708991300606666E9, 0.0, 2024-02-26 18:48:20.606
131.0, 187500.0, 187500.0, 34165.267248781594, -183443.2477883396, 187500.0, -182898.93810736397, -183779.41802494743, -183087.98916196695, 0.066, -0.002, 0.984, 192.0, 0.0, 0.0, 0.0, 0.0, 0.0, 0.0, 0.0, 0.0, 0.0, 1.708991300610652E9, 0.0, 2024-02-26 18:48:20.610
132.0, 187500.0, 187500.0, 34177.650115209835, -183501.87641404587, 187500.0, -182946.97200619843, -183847.92612170294, -183155.35731975525, 0.066, -0.002, 0.984, 192.0, 0.0, 0.0, 0.0, 0.0, 0.0, 0.0, 0.0, 0.0, 0.0, 1.708991300614643E9, 0.0, 2024-02-26 18:48:20.614
133.0, 187500.0, 187500.0, 35044.54017216447, -183658.11510778847, 187500.0, -183092.34775213574, -184015.9888882624, -183323.33067933688, 0.066, -0.002, 0.984, 192.0, 0.0, 0.0, 0.0, 0.0, 0.0, 0.0, 0.0, 0.0, 0.0, 1.708991300619679E9, 0.0, 2024-02-26 18:48:20.619
134.0, 187500.0, 187500.0, 34710.94038616901, -183572.17265035782, 187500.0, -183002.18081500303, -183936.88606463507, -183242.48441964205, 0.066, -0.002, 0.984, 192.0, 0.0, 0.0, 0.0, 0.0, 0.0, 0.0, 0.0, 0.0, 0.0, 1.708991300622719E9, 0.0, 2024-02-26 18:48:20.622
135.0, 187500.0, 187500.0, 34019.220950510615, -183421.32072702894, 187500.0, -182896.3229532627, -183790.95152508636, -183094.73938879246, 0.066, -0.002, 0.984, 192.0, 0.0, 0.0, 0.0, 0.0, 0.0, 0.0, 0.0, 0.0, 0.0, 1.708991300626696E9, 0.0, 2024-02-26 18:48:20.626
136.0, 187500.0, 187500.0, 34312.81111393108, -183421.32072702894, 187500.0, -182887.13638629156, -183799.5345949572, -183101.78018829587, 0.066, -0.002, 0.984, 192.0, 0.0, 0.0, 0.0, 0.0, 0.0, 0.0, 0.0, 0.0, 0.0, 1.708991300630681E9, 0.0, 2024-02-26 18:48:20.630
137.0, 187500.0, 187500.0, 35411.9581475208, -183550.7820309141, 187500.0, -182997.97868704543, -183939.92590188098, -183240.87509404126, 0.07, -0.002, 0.986, 192.0, 2.0, 48.0, 255.0, 240.0, 30.0, 208.0, 0.0, 0.0, 0.0, 1.708991300634684E9, 0.0, 2024-02-26 18:48:20.634
138.0, 187500.0, 187500.0, 35321.768858643634, -183537.10276330743, 187500.0, -182985.10408223918, -183934.67324193398, -183234.63895733823, 0.07, -0.002, 0.986, 192.0, 0.0, 0.0, 0.0, 0.0, 0.0, 0.0, 0.0, 0.0, 0.0, 1.708991300638681E9, 0.0, 2024-02-26 18:48:20.638
139.0, 187500.0, 187500.0, 34127.51515239658, -183384.7309213556, 187500.0, -182897.2617265298, -183787.7775773737, -183086.26807764388, 0.07, -0.002, 0.986, 192.0, 0.0, 0.0, 0.0, 0.0, 0.0, 0.0, 0.0, 0.0, 0.0, 1.708991300642691E9, 0.0, 2024-02-26 18:48:20.642
140.0, 187500.0, 187500.0, 33828.26999762893, -183368.14592696977, 187500.0, -182871.7136826174, -183779.06039703614, -183076.25449612792, 0.07, -0.002, 0.986, 192.0, 0.0, 0.0, 0.0, 0.0, 0.0, 0.0, 0.0, 0.0, 0.0, 1.708991300647669E9, 0.0, 2024-02-26 18:48:20.647
141.0, 187500.0, 187500.0, 34688.63334520261, -183489.3594371509, 187500.0, -182972.07301522174, -183910.35454396662, -183208.0403814364, 0.07, -0.002, 0.986, 192.0, 0.0, 0.0, 0.0, 0.0, 0.0, 0.0, 0.0, 0.0, 0.0, 1.708991300650685E9, 0.0, 2024-02-26 18:48:20.650
142.0, 187500.0, 187500.0, 35137.72459479864, -183507.0620187595, 187500.0, -182994.6035736327, -183937.7130791799, -183234.16957070466, 0.07, -0.002, 0.986, 192.0, 0.0, 0.0, 0.0, 0.0, 0.0, 0.0, 0.0, 0.0, 0.0, 1.708991300653691E9, 0.0, 2024-02-26 18:48:20.653
143.0, 187500.0, 187500.0, 34307.75961968418, -183324.8282462154, 187500.0, -182913.7126104489, -183760.44139390485, -183055.62383599568, 0.07, -0.002, 0.986, 192.0, 0.0, 0.0, 0.0, 0.0, 0.0, 0.0, 0.0, 0.0, 0.0, 1.708991300658704E9, 0.0, 2024-02-26 18:48:20.658
144.0, 187500.0, 187500.0, 34138.46750717968, -183257.19186749362, 187500.0, -182877.63689489805, -183699.42113154187, -182993.93302129902, 0.07, -0.002, 0.986, 192.0, 0.0, 0.0, 0.0, 0.0, 0.0, 0.0, 0.0, 0.0, 0.0, 1.708991300662698E9, 0.0, 2024-02-26 18:48:20.662
145.0, 187500.0, 187500.0, 34866.79910025586, -183336.33939460988, 187500.0, -182918.920566907, -183788.24696400727, -183081.48480433045, 0.07, -0.002, 0.986, 192.0, 0.0, 0.0, 0.0, 0.0, 0.0, 0.0, 0.0, 0.0, 0.0, 1.708991300666691E9, 0.0, 2024-02-26 18:48:20.666
146.0, 187500.0, 187500.0, 35426.12915350546, -183401.51708144153, 187500.0, -182982.0418932488, -183862.3429968766, -183155.13380231068, 0.07, -0.002, 0.986, 192.0, 0.0, 0.0, 0.0, 0.0, 0.0, 0.0, 0.0, 0.0, 0.0, 1.708991300670726E9, 0.0, 2024-02-26 18:48:20.670
147.0, 187500.0, 187500.0, 34413.05868781313, -183240.18218996315, 187500.0, -182914.4278662715, -183705.47845428926, -182997.01756203384, 0.064, -0.002, 0.982, 192.0, 2.0, 0.0, 255.0, 240.0, 30.0, 176.0, 0.0, 0.0, 0.0, 1.708991300675722E9, 0.0, 2024-02-26 18:48:20.675
148.0, 187500.0, 187500.0, 33932.473830279574, -183161.63815994718, 187500.0, -182881.95078157794, -183633.90816854336, -182924.03911638728, 0.064, -0.002, 0.982, 192.0, 0.0, 0.0, 0.0, 0.0, 0.0, 0.0, 0.0, 0.0, 0.0, 1.708991300678709E9, 0.0, 2024-02-26 18:48:20.678
149.0, 187500.0, 187500.0, 34456.95751392335, -183235.82359979436, 187500.0, -182917.93709015098, -183718.88950096245, -183007.67934413903, 0.064, -0.002, 0.982, 192.0, 0.0, 0.0, 0.0, 0.0, 0.0, 0.0, 0.0, 0.0, 0.0, 1.708991300681722E9, 0.0, 2024-02-26 18:48:20.681
150.0, 187500.0, 187500.0, 35246.08585191797, -183348.99048197156, 187500.0, -183019.16814078906, -183842.2934821002, -183130.65864213213, 0.064, -0.002, 0.982, 192.0, 0.0, 0.0, 0.0, 0.0, 0.0, 0.0, 0.0, 0.0, 0.0, 1.708991300686705E9, 0.0, 2024-02-26 18:48:20.686
151.0, 187500.0, 187500.0, 34398.86533008401, -183215.32705012884, 187500.0, -182926.25193908834, -183714.15093113793, -183001.53261441382, 0.064, -0.002, 0.982, 192.0, 0.0, 0.0, 0.0, 0.0, 0.0, 0.0, 0.0, 0.0, 0.0, 1.708991300690706E9, 0.0, 2024-02-26 18:48:20.690
152.0, 187500.0, 187500.0, 33771.764787645916, -183101.98135399597, 187500.0, -182885.86233685762, -183607.26488915263, -182893.30546776124, 0.064, -0.002, 0.982, 192.0, 0.0, 0.0, 0.0, 0.0, 0.0, 0.0, 0.0, 0.0, 0.0, 1.708991300694766E9, 0.0, 2024-02-26 18:48:20.694
153.0, 187500.0, 187500.0, 34180.39937977784, -183142.05803180434, 187500.0, -182898.1110928191, -183655.9916920652, -182941.94286369596, 0.064, -0.002, 0.982, 192.0, 0.0, 0.0, 0.0, 0.0, 0.0, 0.0, 0.0, 0.0, 0.0, 1.708991300698752E9, 0.0, 2024-02-26 18:48:20.698
154.0, 187500.0, 187500.0, 35197.22493853867, -183281.55526894992, 187500.0, -183019.61517567816, -183806.06130433816, -183091.54308933535, 0.064, -0.002, 0.982, 192.0, 0.0, 0.0, 0.0, 0.0, 0.0, 0.0, 0.0, 0.0, 0.0, 1.708991300701736E9, 0.0, 2024-02-26 18:48:20.701
155.0, 187500.0, 187500.0, 34617.89007400156, -183180.61479098976, 187500.0, -182941.96521544043, -183710.03821015815, -182996.9505068005, 0.064, -0.002, 0.982, 192.0, 0.0, 0.0, 0.0, 0.0, 0.0, 0.0, 0.0, 0.0, 0.0, 1.708991300705724E9, 0.0, 2024-02-26 18:48:20.705
156.0, 187500.0, 187500.0, 33787.902747142645, -183051.42170803808, 187500.0, -182891.74084564936, -183586.45541506476, -182894.13248230607, 0.064, -0.002, 0.982, 192.0, 0.0, 0.0, 0.0, 0.0, 0.0, 0.0, 0.0, 0.0, 0.0, 1.708991300709735E9, 0.0, 2024-02-26 18:48:20.709
157.0, 187500.0, 187500.0, 33874.82868132933, -183073.88521121565, 187500.0, -182886.82346186918, -183617.9937264912, -182924.9331861655, 0.062, 0.0, 0.982, 192.0, 1.0, 240.0, 0.0, 0.0, 30.0, 176.0, 0.0, 0.0, 0.0, 1.70899130071476E9, 0.0, 2024-02-26 18:48:20.714
158.0, 187500.0, 187500.0, 34765.0539594953, -183211.1919774046, 187500.0, -183007.9028615836, -183766.94575154135, -183071.2700571144, 0.062, 0.0, 0.982, 192.0, 0.0, 0.0, 0.0, 0.0, 0.0, 0.0, 0.0, 0.0, 0.0, 1.708991300718747E9, 0.0, 2024-02-26 18:48:20.718
159.0, 187500.0, 187500.0, 34406.33081273208, -183158.73243316798, 187500.0, -182966.06039596326, -183721.9069864639, -183025.67249842556, 0.062, 0.0, 0.982, 192.0, 0.0, 0.0, 0.0, 0.0, 0.0, 0.0, 0.0, 0.0, 0.0, 1.708991300722761E9, 0.0, 2024-02-26 18:48:20.722
160.0, 187500.0, 187500.0, 33484.0531330172, -183017.75998088837, 187500.0, -182893.37252299458, -183585.85191796446, -182894.95949685093, 0.062, 0.0, 0.982, 192.0, 0.0, 0.0, 0.0, 0.0, 0.0, 0.0, 0.0, 0.0, 0.0, 1.708991300726752E9, 0.0, 2024-02-26 18:48:20.726
161.0, 187500.0, 187500.0, 33502.739191381836, -183015.50245469838, 187500.0, -182880.09558678814, -183590.9704674447, -182901.68737193197, 0.062, 0.0, 0.982, 192.0, 0.0, 0.0, 0.0, 0.0, 0.0, 0.0, 0.0, 0.0, 0.0, 1.708991300730749E9, 0.0, 2024-02-26 18:48:20.730
162.0, 187500.0, 187500.0, 34405.50379818724, -183156.13963081117, 187500.0, -183000.1915097465, -183742.60470182952, -183051.3099493158, 0.062, 0.0, 0.982, 192.0, 0.0, 0.0, 0.0, 0.0, 0.0, 0.0, 0.0, 0.0, 0.0, 1.708991300733777E9, 0.0, 2024-02-26 18:48:20.733
163.0, 187500.0, 187500.0, 34314.5992534875, -183173.17166008614, 187500.0, -183006.4052947051, -183769.53855389816, -183075.5168885609, 0.062, 0.0, 0.982, 192.0, 0.0, 0.0, 0.0, 0.0, 0.0, 0.0, 0.0, 0.0, 0.0, 1.708991300737764E9, 0.0, 2024-02-26 18:48:20.737
164.0, 187500.0, 187500.0, 33227.67862411483, -183049.6559202261, 187500.0, -182890.73501714887, -183651.83426759654, -182955.55507606926, 0.062, 0.0, 0.982, 192.0, 0.0, 0.0, 0.0, 0.0, 0.0, 0.0, 0.0, 0.0, 0.0, 1.708991300743759E9, 0.0, 2024-02-26 18:48:20.743
165.0, 187500.0, 187500.0, 33227.231589225725, -183045.78906843532, 187500.0, -182882.91190658952, -183656.03639555414, -182959.01959645984, 0.062, 0.0, 0.982, 192.0, 0.0, 0.0, 0.0, 0.0, 0.0, 0.0, 0.0, 0.0, 0.0, 1.708991300746792E9, 0.0, 2024-02-26 18:48:20.746
166.0, 187500.0, 187500.0, 34400.13937951796, -183177.4408432771, 187500.0, -182998.11279751215, -183799.48989146829, -183101.93665050706, 0.062, 0.0, 0.982, 192.0, 0.0, 0.0, 0.0, 0.0, 0.0, 0.0, 0.0, 0.0, 0.0, 1.708991300750799E9, 0.0, 2024-02-26 18:48:20.750
167.0, 187500.0, 187500.0, 35009.44793336963, -183240.0927829853, 187500.0, -183050.41587953758, -183872.31187490368, -183174.02102637544, 0.066, -0.004, 0.978, 192.0, 2.0, 16.0, 255.0, 224.0, 30.0, 144.0, 0.0, 0.0, 0.0, 1.708991300754795E9, 0.0, 2024-02-26 18:48:20.754
168.0, 187500.0, 187500.0, 33968.34838013034, -183102.67425807408, 187500.0, -182915.18782558298, -183738.89431224996, -183039.7540974324, 0.066, -0.004, 0.978, 192.0, 0.0, 0.0, 0.0, 0.0, 0.0, 0.0, 0.0, 0.0, 0.0, 1.708991300758813E9, 0.0, 2024-02-26 18:48:20.758
169.0, 187500.0, 187500.0, 33454.370016380555, -183081.88713573065, 187500.0, -182886.15290953554, -183725.23739638776, -183025.448980981, 0.066, -0.004, 0.978, 192.0, 0.0, 0.0, 0.0, 0.0, 0.0, 0.0, 0.0, 0.0, 0.0, 1.708991300761818E9, 0.0, 2024-02-26 18:48:20.761
170.0, 187500.0, 187500.0, 33984.53104311598, -183198.67500050963, 187500.0, -182989.82030031923, -183853.20113339438, -183152.69746216506, 0.066, -0.004, 0.978, 192.0, 0.0, 0.0, 0.0, 0.0, 0.0, 0.0, 0.0, 0.0, 0.0, 1.708991300765815E9, 0.0, 2024-02-26 18:48:20.765
171.0, 187500.0, 187500.0, 34662.325341978714, -183283.83514688435, 187500.0, -183066.97852217895, -183949.58185548568, -183247.78178307795, 0.066, -0.004, 0.978, 192.0, 0.0, 0.0, 0.0, 0.0, 0.0, 0.0, 0.0, 0.0, 0.0, 1.708991300770825E9, 0.0, 2024-02-26 18:48:20.770
172.0, 187500.0, 187500.0, 33870.49244290501, -183110.6761825891, 187500.0, -182945.69795676446, -183780.89324008147, -183077.59560079523, 0.066, -0.004, 0.978, 192.0, 0.0, 0.0, 0.0, 0.0, 0.0, 0.0, 0.0, 0.0, 0.0, 1.708991300774829E9, 0.0, 2024-02-26 18:48:20.774
173.0, 187500.0, 187500.0, 33518.83244738966, -183010.71918138495, 187500.0, -182903.0731800882, -183687.5076517472, -182982.9806665159, 0.066, -0.004, 0.978, 192.0, 0.0, 0.0, 0.0, 0.0, 0.0, 0.0, 0.0, 0.0, 0.0, 1.708991300778825E9, 0.0, 2024-02-26 18:48:20.778
174.0, 187500.0, 187500.0, 34064.527936521525, -183065.27978960035, 187500.0, -182923.14504660908, -183750.78544030018, -183046.03493762435, 0.066, -0.004, 0.978, 192.0, 0.0, 0.0, 0.0, 0.0, 0.0, 0.0, 0.0, 0.0, 0.0, 1.708991300782816E9, 0.0, 2024-02-26 18:48:20.782
175.0, 187500.0, 187500.0, 34900.349068683274, -183164.85681114875, 187500.0, -183012.93200408603, -183859.70549103088, -183154.84322963277, 0.066, -0.004, 0.978, 192.0, 0.0, 0.0, 0.0, 0.0, 0.0, 0.0, 0.0, 0.0, 0.0, 1.708991300785817E9, 0.0, 2024-02-26 18:48:20.785
176.0, 187500.0, 187500.0, 34156.326550999474, -182965.6804163075, 187500.0, -182933.5386077808, -183711.111093892, -183017.67057391055, 0.066, -0.004, 0.978, 192.0, 0.0, 0.0, 0.0, 0.0, 0.0, 0.0, 0.0, 0.0, 0.0, 1.708991300789828E9, 0.0, 2024-02-26 18:48:20.789
177.0, 187500.0, 187500.0, 33621.60576839516, -182700.611078812, 187500.0, -182891.67379041598, -183573.08907188047, -182918.1159041066, 0.07, -0.004, 0.978, 192.0, 2.0, 48.0, 255.0, 224.0, 30.0, 144.0, 0.0, 0.0, 0.0, 1.70899130079383E9, 0.0, 2024-02-26 18:48:20.793
178.0, 187500.0, 187500.0, 34083.41516058626, -182942.74752649636, 187500.0, -182896.74763640735, -183612.62930782192, -182948.87190447713, 0.07, -0.004, 0.978, 192.0, 0.0, 0.0, 0.0, 0.0, 0.0, 0.0, 0.0, 0.0, 0.0, 1.708991300797885E9, 0.0, 2024-02-26 18:48:20.797
179.0, 187500.0, 187500.0, 35062.5780299399, -183468.28174212953, 187500.0, -182989.61913461913, -183738.29081514967, -183072.3205891038, 0.07, -0.004, 0.978, 192.0, 0.0, 0.0, 0.0, 0.0, 0.0, 0.0, 0.0, 0.0, 0.0, 1.708991300802858E9, 0.0, 2024-02-26 18:48:20.802
180.0, 187500.0, 187500.0, 34408.56598717761, -183522.7082398782, 187500.0, -182946.83789573167, -183651.02960479615, -182996.32465795573, 0.07, -0.004, 0.978, 192.0, 0.0, 0.0, 0.0, 0.0, 0.0, 0.0, 0.0, 0.0, 0.0, 1.70899130080702E9, 0.0, 2024-02-26 18:48:20.807
181.0, 187500.0, 187500.0, 33463.55658335168, -183389.67065688022, 187500.0, -182903.9672498664, -183522.84235034496, -182907.3200115347, 0.07, -0.004, 0.978, 192.0, 0.0, 0.0, 0.0, 0.0, 0.0, 0.0, 0.0, 0.0, 0.0, 1.708991300809907E9, 0.0, 2024-02-26 18:48:20.809
182.0, 187500.0, 187500.0, 33575.76234051733, -183405.9427268437, 187500.0, -182898.2675550303, -183548.85978089093, -182924.1285233651, 0.07, -0.004, 0.978, 192.0, 0.0, 0.0, 0.0, 0.0, 0.0, 0.0, 0.0, 0.0, 0.0, 1.708991300813856E9, 0.0, 2024-02-26 18:48:20.813
183.0, 187500.0, 187500.0, 34664.00172281286, -183544.0765075775, 187500.0, -183016.01654482086, -183699.33172456405, -183072.3652925927, 0.07, -0.004, 0.978, 192.0, 0.0, 0.0, 0.0, 0.0, 0.0, 0.0, 0.0, 0.0, 0.0, 1.708991300817851E9, 0.0, 2024-02-26 18:48:20.817
184.0, 187500.0, 187500.0, 34567.26337281029, -183497.67428608827, 187500.0, -182980.81254730377, -183659.7020816448, -183035.90959738608, 0.07, -0.004, 0.978, 192.0, 0.0, 0.0, 0.0, 0.0, 0.0, 0.0, 0.0, 0.0, 0.0, 1.708991300821864E9, 0.0, 2024-02-26 18:48:20.821
185.0, 187500.0, 187500.0, 33702.116751923175, -183338.75338301103, 187500.0, -182908.75052317986, -183504.13394023586, -182913.75731393782, 0.07, -0.004, 0.978, 192.0, 0.0, 0.0, 0.0, 0.0, 0.0, 0.0, 0.0, 0.0, 0.0, 1.708991300825856E9, 0.0, 2024-02-26 18:48:20.825
186.0, 187500.0, 187500.0, 33689.957402939486, -183330.1703131402, 187500.0, -182887.04697931375, -183504.17864372476, -182916.5736337392, 0.066, -0.006, 0.984, 192.0, 2.0, 16.0, 255.0, 208.0, 30.0, 192.0, 0.0, 0.0, 0.0, 1.70899130083086E9, 0.0, 2024-02-26 18:48:20.830
187.0, 187500.0, 187500.0, 34609.686983786465, -183464.5937042944, 187500.0, -182999.02921903483, -183650.11318327347, -183058.1048796302, 0.066, -0.006, 0.984, 192.0, 0.0, 0.0, 0.0, 0.0, 0.0, 0.0, 0.0, 0.0, 0.0, 1.708991300834858E9, 0.0, 2024-02-26 18:48:20.834
188.0, 187500.0, 187500.0, 34714.78488621532, -183457.552904791, 187500.0, -182996.23525097792, -183651.02960479615, -183061.2117721095, 0.066, -0.006, 0.984, 192.0, 0.0, 0.0, 0.0, 0.0, 0.0, 0.0, 0.0, 0.0, 0.0, 1.708991300837861E9, 0.0, 2024-02-26 18:48:20.837
189.0, 187500.0, 187500.0, 33723.708537067, -183282.87402187276, 187500.0, -182915.433694772, -183481.13399519134, -182926.7213257219, 0.066, -0.006, 0.984, 192.0, 0.0, 0.0, 0.0, 0.0, 0.0, 0.0, 0.0, 0.0, 0.0, 1.708991300841888E9, 0.0, 2024-02-26 18:48:20.841
190.0, 187500.0, 187500.0, 33555.46695655191, -183240.58452136334, 187500.0, -182882.55427867823, -183446.37703256335, -182904.5707469667, 0.066, -0.006, 0.984, 192.0, 0.0, 0.0, 0.0, 0.0, 0.0, 0.0, 0.0, 0.0, 0.0, 1.708991300845917E9, 0.0, 2024-02-26 18:48:20.845
191.0, 187500.0, 187500.0, 34354.6088760625, -183351.89620875075, 187500.0, -182963.31113139525, -183568.59637124496, -183020.30807975627, 0.066, -0.006, 0.984, 192.0, 0.0, 0.0, 0.0, 0.0, 0.0, 0.0, 0.0, 0.0, 0.0, 1.708991300849916E9, 0.0, 2024-02-26 18:48:20.849
192.0, 187500.0, 187500.0, 34758.84017453673, -183391.2352789921, 187500.0, -183004.9524313155, -183617.45728462425, -183070.1077664027, 0.066, -0.006, 0.984, 192.0, 0.0, 0.0, 0.0, 0.0, 0.0, 0.0, 0.0, 0.0, 0.0, 1.708991300854922E9, 0.0, 2024-02-26 18:48:20.854
193.0, 187500.0, 187500.0, 33788.595651220756, -183216.17641641814, 187500.0, -182926.4754565329, -183446.6005500079, -182942.54636079626, 0.066, -0.006, 0.984, 192.0, 0.0, 0.0, 0.0, 0.0, 0.0, 0.0, 0.0, 0.0, 0.0, 1.708991300858914E9, 0.0, 2024-02-26 18:48:20.858
194.0, 187500.0, 187500.0, 33515.14440955453, -183143.46619170503, 187500.0, -182881.63785715555, -183379.76883408654, -182898.82634864168, 0.066, -0.006, 0.984, 192.0, 0.0, 0.0, 0.0, 0.0, 0.0, 0.0, 0.0, 0.0, 0.0, 1.708991300862917E9, 0.0, 2024-02-26 18:48:20.862
195.0, 187500.0, 187500.0, 34198.124313130895, -183230.30271891388, 187500.0, -182933.2256833584, -183477.62477131188, -182985.37230317263, 0.066, -0.006, 0.984, 192.0, 0.0, 0.0, 0.0, 0.0, 0.0, 0.0, 0.0, 0.0, 0.0, 1.708991300865903E9, 0.0, 2024-02-26 18:48:20.865
196.0, 187500.0, 187500.0, 34819.94984387754, -183329.90209220673, 187500.0, -183021.91740535706, -183587.99768543217, -183094.33705739226, 0.064, -0.006, 0.976, 192.0, 2.0, 0.0, 255.0, 208.0, 30.0, 128.0, 0.0, 0.0, 0.0, 1.7089913008699E9, 0.0, 2024-02-26 18:48:20.869
