%OpenBCI Raw EXG Data
%Number of channels = 8
%Sample Rate = 250 Hz
%Board = OpenBCI_GUI$BoardCytonSerial
Sample Index, EXG Channel 0, EXG Channel 1, EXG Channel 2, EXG Channel 3, EXG Channel 4, EXG Channel 5, EXG Channel 6, EXG Channel 7, Accel Channel 0, Accel Channel 1, Accel Channel 2, Other, Other, Other, Other, Other, Other, Other, Analog Channel 0, Analog Channel 1, Analog Channel 2, Timestamp, Other, Timestamp (Formatted)
149.0, 187500.0, 187500.0, 21602.156353253886, -183516.09212351945, 187500.0, -183038.703565443, -183098.60624058323, -183078.33320836225, 0.0, 0.0, 0.0, 192.0, 0.0, 0.0, 0.0, 0.0, 0.0, 0.0, 0.0, 0.0, 0.0, 1.708991573017706E9, 0.0, 2024-02-26 18:52:53.017
150.0, 187500.0, 187500.0, 22203.239465146, -183567.88111542238, 187500.0, -183088.41384511162, -183160.40881400215, -183139.64404340315, 0.0, 0.0, 0.0, 192.0, 0.0, 0.0, 0.0, 0.0, 0.0, 0.0, 0.0, 0.0, 0.0, 1.708991573017733E9, 0.0, 2024-02-26 18:52:53.017
0.0, 0.0, 0.0, 0.0, 0.0, 0.0, 0.0, 0.0, 0.0, 0.064, -0.01, 0.984, 192.0, 2.0, 0.0, 255.0, 176.0, 30.0, 192.0, 0.0, 0.0, 0.0, 1.70899157307622E9, 0.0, 2024-02-26 18:52:53.076
1.0, 187500.0, 187500.0, 187500.0, 187500.0, 187500.0, 187500.0, 51260.9989954232, -186942.43573456237, 0.064, -0.01, 0.984, 192.0, 0.0, 0.0, 0.0, 0.0, 0.0, 0.0, 0.0, 0.0, 0.0, 1.70899157309222E9, 0.0, 2024-02-26 18:52:53.092
2.0, 187500.0, 187500.0, 187500.0, 187500.0, 187500.0, 187500.0, 52072.814354039954, -186948.40365033195, 0.064, -0.01, 0.984, 192.0, 0.0, 0.0, 0.0, 0.0, 0.0, 0.0, 0.0, 0.0, 0.0, 1.708991573095233E9, 0.0, 2024-02-26 18:52:53.095
3.0, 187500.0, 187500.0, 187500.0, 187500.0, 187500.0, 187500.0, 52344.36569742748, -186941.78753397317, 0.064, -0.01, 0.984, 192.0, 0.0, 0.0, 0.0, 0.0, 0.0, 0.0, 0.0, 0.0, 0.0, 1.708991573099224E9, 0.0, 2024-02-26 18:52:53.099
4.0, 187500.0, 187500.0, 187500.0, 187500.0, 187500.0, 187500.0, 52216.87134705441, -186929.11409486702, 0.064, -0.01, 0.984, 192.0, 0.0, 0.0, 0.0, 0.0, 0.0, 0.0, 0.0, 0.0, 0.0, 1.708991573103229E9, 0.0, 2024-02-26 18:52:53.103
5.0, 187500.0, 187500.0, 187500.0, 187500.0, 187500.0, 187500.0, 52380.68728216735, -186924.5766907426, 0.064, -0.01, 0.984, 192.0, 0.0, 0.0, 0.0, 0.0, 0.0, 0.0, 0.0, 0.0, 0.0, 1.708991573107229E9, 0.0, 2024-02-26 18:52:53.107
6.0, 187500.0, 187500.0, 187500.0, 187500.0, 187500.0, 187500.0, 53006.737292616046, -186926.05190587664, 0.064, -0.01, 0.984, 192.0, 0.0, 0.0, 0.0, 0.0, 0.0, 0.0, 0.0, 0.0, 0.0, 1.708991573111225E9, 0.0, 2024-02-26 18:52:53.111
7.0, 187500.0, 187500.0, 187500.0, 187500.0, 187500.0, 187500.0, 53341.320555367536, -186921.35803954102, 0.064, -0.01, 0.984, 192.0, 0.0, 0.0, 0.0, 0.0, 0.0, 0.0, 0.0, 0.0, 0.0, 1.708991573115236E9, 0.0, 2024-02-26 18:52:53.115
8.0, 187500.0, 187500.0, 187500.0, 187500.0, 187500.0, 187500.0, 53055.55350250644, -186907.23173704528, 0.066, -0.012, 0.986, 192.0, 2.0, 16.0, 255.0, 160.0, 30.0, 208.0, 0.0, 0.0, 0.0, 1.708991573120259E9, 0.0, 2024-02-26 18:52:53.120
9.0, 187500.0, 187500.0, 187500.0, 187500.0, 187500.0, 187500.0, 53011.766435118494, -186900.30269626412, 0.066, -0.012, 0.986, 192.0, 0.0, 0.0, 0.0, 0.0, 0.0, 0.0, 0.0, 0.0, 0.0, 1.708991573123263E9, 0.0, 2024-02-26 18:52:53.123
10.0, 187500.0, 187500.0, 187500.0, 187500.0, 187500.0, 187500.0, 53387.65572162339, -186903.58840269907, 0.066, -0.012, 0.986, 192.0, 0.0, 0.0, 0.0, 0.0, 0.0, 0.0, 0.0, 0.0, 0.0, 1.708991573126259E9, 0.0, 2024-02-26 18:52:53.126
11.0, 187500.0, 187500.0, 187500.0, 187500.0, 187500.0, 187500.0, 53695.72981545089, -186904.3260102661, 0.066, -0.012, 0.986, 192.0, 0.0, 0.0, 0.0, 0.0, 0.0, 0.0, 0.0, 0.0, 0.0, 1.708991573131263E9, 0.0, 2024-02-26 18:52:53.131
12.0, 187500.0, 187500.0, 187500.0, 187500.0, 187500.0, 187500.0, 53266.06223178652, -186892.8595653605, 0.066, -0.012, 0.986, 192.0, 0.0, 0.0, 0.0, 0.0, 0.0, 0.0, 0.0, 0.0, 0.0, 1.708991573135244E9, 0.0, 2024-02-26 18:52:53.135
13.0, 187500.0, 187500.0, 187500.0, 187500.0, 187500.0, 187500.0, 53069.81391546893, -186887.5622019246, 0.066, -0.012, 0.986, 192.0, 0.0, 0.0, 0.0, 0.0, 0.0, 0.0, 0.0, 0.0, 0.0, 1.708991573139278E9, 0.0, 2024-02-26 18:52:53.139
14.0, 187500.0, 187500.0, 187500.0, 187500.0, 187500.0, 187500.0, 53303.74727293817, -186887.6069054135, 0.066, -0.012, 0.986, 192.0, 0.0, 0.0, 0.0, 0.0, 0.0, 0.0, 0.0, 0.0, 0.0, 1.708991573143278E9, 0.0, 2024-02-26 18:52:53.143
15.0, 187500.0, 187500.0, 187500.0, 187500.0, 187500.0, 187500.0, 53736.946432226476, -186894.22302177228, 0.066, -0.012, 0.986, 192.0, 0.0, 0.0, 0.0, 0.0, 0.0, 0.0, 0.0, 0.0, 0.0, 1.708991573147293E9, 0.0, 2024-02-26 18:52:53.147
16.0, 187500.0, 187500.0, 187500.0, 187500.0, 187500.0, 187500.0, 53409.02398932267, -186884.8576408455, 0.066, -0.012, 0.986, 192.0, 0.0, 0.0, 0.0, 0.0, 0.0, 0.0, 0.0, 0.0, 0.0, 1.708991573150259E9, 0.0, 2024-02-26 18:52:53.150
17.0, 187500.0, 187500.0, 187500.0, 187500.0, 187500.0, 187500.0, 53173.79423067501, -186879.1579460094, 0.066, -0.012, 0.988, 192.0, 2.0, 16.0, 255.0, 160.0, 30.0, 224.0, 0.0, 0.0, 0.0, 1.708991573155292E9, 0.0, 2024-02-26 18:52:53.155
18.0, 187500.0, 187500.0, 187500.0, 187500.0, 187500.0, 187500.0, 53291.766737910126, -186880.43199544336, 0.066, -0.012, 0.988, 192.0, 0.0, 0.0, 0.0, 0.0, 0.0, 0.0, 0.0, 0.0, 0.0, 1.708991573159284E9, 0.0, 2024-02-26 18:52:53.159
19.0, 187500.0, 187500.0, 187500.0, 187500.0, 187500.0, 187500.0, 53673.6686436735, -186885.88582109046, 0.066, -0.012, 0.988, 192.0, 0.0, 0.0, 0.0, 0.0, 0.0, 0.0, 0.0, 0.0, 0.0, 1.708991573163296E9, 0.0, 2024-02-26 18:52:53.163
20.0, 187500.0, 187500.0, 187500.0, 187500.0, 187500.0, 187500.0, 53293.06313908853, -186877.54862040863, 0.066, -0.012, 0.988, 192.0, 0.0, 0.0, 0.0, 0.0, 0.0, 0.0, 0.0, 0.0, 0.0, 1.708991573167288E9, 0.0, 2024-02-26 18:52:53.167
21.0, 187500.0, 187500.0, 187500.0, 187500.0, 187500.0, 187500.0, 52902.019369842936, -186868.60792262648, 0.066, -0.012, 0.988, 192.0, 0.0, 0.0, 0.0, 0.0, 0.0, 0.0, 0.0, 0.0, 0.0, 1.708991573171295E9, 0.0, 2024-02-26 18:52:53.171
22.0, 187500.0, 187500.0, 187500.0, 187500.0, 187500.0, 187500.0, 53005.50794667101, -186871.53600115015, 0.066, -0.012, 0.988, 192.0, 0.0, 0.0, 0.0, 0.0, 0.0, 0.0, 0.0, 0.0, 0.0, 1.708991573175299E9, 0.0, 2024-02-26 18:52:53.175
23.0, 187500.0, 187500.0, 187500.0, 187500.0, 187500.0, 187500.0, 53609.94382023142, -186877.88389657545, 0.066, -0.012, 0.988, 192.0, 0.0, 0.0, 0.0, 0.0, 0.0, 0.0, 0.0, 0.0, 0.0, 1.708991573179861E9, 0.0, 2024-02-26 18:52:53.179
24.0, 187500.0, 187500.0, 187500.0, 187500.0, 187500.0, 187500.0, 53664.929111591475, -186872.51947790617, 0.066, -0.012, 0.988, 192.0, 0.0, 0.0, 0.0, 0.0, 0.0, 0.0, 0.0, 0.0, 0.0, 1.708991573182306E9, 0.0, 2024-02-26 18:52:53.182
25.0, 187500.0, 187500.0, 187500.0, 187500.0, 187500.0, 187500.0, 53540.67576416442, -186864.85282955802, 0.066, -0.012, 0.988, 192.0, 0.0, 0.0, 0.0, 0.0, 0.0, 0.0, 0.0, 0.0, 0.0, 1.708991573187321E9, 0.0, 2024-02-26 18:52:53.187
26.0, 187500.0, 187500.0, 187500.0, 187500.0, 187500.0, 187500.0, 53833.193043851024, -186861.74593707873, 0.066, -0.012, 0.988, 192.0, 0.0, 0.0, 0.0, 0.0, 0.0, 0.0, 0.0, 0.0, 0.0, 1.708991573191325E9, 0.0, 2024-02-26 18:52:53.191
27.0, 187500.0, 187500.0, 187500.0, 187500.0, 187500.0, 187500.0, 54681.79937384121, -186865.6574923584, 0.066, -0.012, 0.99, 192.0, 2.0, 16.0, 255.0, 160.0, 30.0, 240.0, 0.0, 0.0, 0.0, 1.708991573195326E9, 0.0, 2024-02-26 18:52:53.195
28.0, 187500.0, 187500.0, 187500.0, 187500.0, 187500.0, 187500.0, 55336.37021021488, -186863.17644872385, 0.066, -0.012, 0.99, 192.0, 0.0, 0.0, 0.0, 0.0, 0.0, 0.0, 0.0, 0.0, 0.0, 1.70899157319932E9, 0.0, 2024-02-26 18:52:53.199
29.0, 187500.0, 187500.0, 187500.0, 187500.0, 187500.0, 187500.0, 56032.73880871997, -186847.1502479494, 0.066, -0.012, 0.99, 192.0, 0.0, 0.0, 0.0, 0.0, 0.0, 0.0, 0.0, 0.0, 0.0, 1.708991573203325E9, 0.0, 2024-02-26 18:52:53.203
30.0, 187500.0, 187500.0, 187500.0, 187500.0, 187500.0, 187500.0, 57007.20781173799, -186836.98020422223, 0.066, -0.012, 0.99, 192.0, 0.0, 0.0, 0.0, 0.0, 0.0, 0.0, 0.0, 0.0, 0.0, 1.708991573206356E9, 0.0, 2024-02-26 18:52:53.206
31.0, 187500.0, 187500.0, 187500.0, 187500.0, 187500.0, 187500.0, 58344.19975807664, -186836.93550073332, 0.066, -0.012, 0.99, 192.0, 0.0, 0.0, 0.0, 0.0, 0.0, 0.0, 0.0, 0.0, 0.0, 1.708991573210351E9, 0.0, 2024-02-26 18:52:53.210
32.0, 187500.0, 187500.0, 187500.0, 187500.0, 187500.0, 187500.0, 59436.95419275215, -186831.81695125307, 0.066, -0.012, 0.99, 192.0, 0.0, 0.0, 0.0, 0.0, 0.0, 0.0, 0.0, 0.0, 0.0, 1.708991573215346E9, 0.0, 2024-02-26 18:52:53.215
33.0, 187500.0, 187500.0, 187500.0, 187500.0, 187500.0, 187500.0, 59815.637447313966, -186817.82475922405, 0.066, -0.012, 0.99, 192.0, 0.0, 0.0, 0.0, 0.0, 0.0, 0.0, 0.0, 0.0, 0.0, 1.708991573219386E9, 0.0, 2024-02-26 18:52:53.219
34.0, 187500.0, 187500.0, 187500.0, 187500.0, 187500.0, 187500.0, 60321.16685165964, -186810.87336669845, 0.066, -0.012, 0.99, 192.0, 0.0, 0.0, 0.0, 0.0, 0.0, 0.0, 0.0, 0.0, 0.0, 1.708991573223387E9, 0.0, 2024-02-26 18:52:53.223
35.0, 187500.0, 187500.0, 187500.0, 187500.0, 187500.0, 187500.0, 61122.2757246823, -186814.65081151138, 0.066, -0.012, 0.99, 192.0, 0.0, 0.0, 0.0, 0.0, 0.0, 0.0, 0.0, 0.0, 0.0, 1.708991573227416E9, 0.0, 2024-02-26 18:52:53.227
36.0, 187500.0, 187500.0, 187500.0, 187500.0, 187500.0, 187500.0, 61858.788056229125, -186813.9355556888, 0.066, -0.012, 0.99, 192.0, 0.0, 0.0, 0.0, 0.0, 0.0, 0.0, 0.0, 0.0, 0.0, 1.708991573230414E9, 0.0, 2024-02-26 18:52:53.230
37.0, 187500.0, 187500.0, 187500.0, 187500.0, 187500.0, 187500.0, 61799.511229933654, -186801.59739274948, 0.066, -0.01, 0.98, 192.0, 2.0, 16.0, 255.0, 176.0, 30.0, 160.0, 0.0, 0.0, 0.0, 1.708991573234392E9, 0.0, 2024-02-26 18:52:53.234
38.0, 187500.0, 187500.0, 187500.0, 187500.0, 187500.0, 187500.0, 61852.48486429273, -186792.25436356716, 0.066, -0.01, 0.98, 192.0, 0.0, 0.0, 0.0, 0.0, 0.0, 0.0, 0.0, 0.0, 0.0, 1.708991573238419E9, 0.0, 2024-02-26 18:52:53.238
39.0, 187500.0, 187500.0, 187500.0, 187500.0, 187500.0, 187500.0, 62284.678195080545, -186794.57894499053, 0.066, -0.01, 0.98, 192.0, 0.0, 0.0, 0.0, 0.0, 0.0, 0.0, 0.0, 0.0, 0.0, 1.708991573243398E9, 0.0, 2024-02-26 18:52:53.243
40.0, 187500.0, 187500.0, 187500.0, 187500.0, 187500.0, 187500.0, 62919.28892365562, -186800.25628808216, 0.066, -0.01, 0.98, 192.0, 0.0, 0.0, 0.0, 0.0, 0.0, 0.0, 0.0, 0.0, 0.0, 1.708991573247405E9, 0.0, 2024-02-26 18:52:53.247
41.0, 187500.0, 187500.0, 187500.0, 187500.0, 187500.0, 187500.0, 62762.17851187927, -186791.0920728555, 0.066, -0.01, 0.98, 192.0, 0.0, 0.0, 0.0, 0.0, 0.0, 0.0, 0.0, 0.0, 0.0, 1.708991573251406E9, 0.0, 2024-02-26 18:52:53.251
42.0, 187500.0, 187500.0, 187500.0, 187500.0, 187500.0, 187500.0, 62708.71313914218, -186781.8831541399, 0.066, -0.01, 0.98, 192.0, 0.0, 0.0, 0.0, 0.0, 0.0, 0.0, 0.0, 0.0, 0.0, 1.708991573255406E9, 0.0, 2024-02-26 18:52:53.255
43.0, 187500.0, 187500.0, 187500.0, 187500.0, 187500.0, 187500.0, 63063.01064050325, -186779.91620062783, 0.066, -0.01, 0.98, 192.0, 0.0, 0.0, 0.0, 0.0, 0.0, 0.0, 0.0, 0.0, 0.0, 1.7089915732594E9, 0.0, 2024-02-26 18:52:53.259
44.0, 187500.0, 187500.0, 187500.0, 187500.0, 187500.0, 187500.0, 63713.334645430405, -186784.31949428553, 0.066, -0.01, 0.98, 192.0, 0.0, 0.0, 0.0, 0.0, 0.0, 0.0, 0.0, 0.0, 0.0, 1.708991573262401E9, 0.0, 2024-02-26 18:52:53.262
45.0, 187500.0, 187500.0, 187500.0, 187500.0, 187500.0, 187500.0, 63619.50202220703, -186777.85984013794, 0.066, -0.01, 0.98, 192.0, 0.0, 0.0, 0.0, 0.0, 0.0, 0.0, 0.0, 0.0, 0.0, 1.708991573266401E9, 0.0, 2024-02-26 18:52:53.266
46.0, 187500.0, 187500.0, 187500.0, 187500.0, 187500.0, 187500.0, 63483.066974051835, -186769.85791562294, 0.066, -0.01, 0.98, 192.0, 0.0, 0.0, 0.0, 0.0, 0.0, 0.0, 0.0, 0.0, 0.0, 1.708991573271403E9, 0.0, 2024-02-26 18:52:53.271
47.0, 187500.0, 187500.0, 187500.0, 187500.0, 187500.0, 187500.0, 63723.549392646484, -186765.1416975429, 0.066, -0.01, 0.98, 192.0, 2.0, 16.0, 255.0, 176.0, 30.0, 160.0, 0.0, 0.0, 0.0, 1.708991573275402E9, 0.0, 2024-02-26 18:52:53.275
48.0, 187500.0, 187500.0, 187500.0, 187500.0, 187500.0, 187500.0, 64395.375775739645, -186769.16501154483, 0.066, -0.01, 0.98, 192.0, 0.0, 0.0, 0.0, 0.0, 0.0, 0.0, 0.0, 0.0, 0.0, 1.708991573279419E9, 0.0, 2024-02-26 18:52:53.279
49.0, 187500.0, 187500.0, 187500.0, 187500.0, 187500.0, 187500.0, 64463.414485861605, -186762.3253777415, 0.066, -0.01, 0.98, 192.0, 0.0, 0.0, 0.0, 0.0, 0.0, 0.0, 0.0, 0.0, 0.0, 1.708991573282405E9, 0.0, 2024-02-26 18:52:53.282
50.0, 187500.0, 187500.0, 187500.0, 187500.0, 187500.0, 187500.0, 64271.86003587962, -186752.0212235476, 0.066, -0.01, 0.98, 192.0, 0.0, 0.0, 0.0, 0.0, 0.0, 0.0, 0.0, 0.0, 0.0, 1.708991573286448E9, 0.0, 2024-02-26 18:52:53.286
51.0, 187500.0, 187500.0, 187500.0, 187500.0, 187500.0, 187500.0, 64467.57191033029, -186747.99790954567, 0.066, -0.01, 0.98, 192.0, 0.0, 0.0, 0.0, 0.0, 0.0, 0.0, 0.0, 0.0, 0.0, 1.708991573290442E9, 0.0, 2024-02-26 18:52:53.290
52.0, 187500.0, 187500.0, 187500.0, 187500.0, 187500.0, 187500.0, 65158.10670353255, -186749.33901421298, 0.066, -0.01, 0.98, 192.0, 0.0, 0.0, 0.0, 0.0, 0.0, 0.0, 0.0, 0.0, 0.0, 1.708991573294454E9, 0.0, 2024-02-26 18:52:53.294
53.0, 187500.0, 187500.0, 187500.0, 187500.0, 187500.0, 187500.0, 65404.937017552504, -186745.33805195548, 0.066, -0.01, 0.98, 192.0, 0.0, 0.0, 0.0, 0.0, 0.0, 0.0, 0.0, 0.0, 0.0, 1.708991573299441E9, 0.0, 2024-02-26 18:52:53.299
54.0, 187500.0, 187500.0, 187500.0, 187500.0, 187500.0, 187500.0, 65171.294232761174, -186732.48579889367, 0.066, -0.01, 0.98, 192.0, 0.0, 0.0, 0.0, 0.0, 0.0, 0.0, 0.0, 0.0, 0.0, 1.708991573303464E9, 0.0, 2024-02-26 18:52:53.303
55.0, 187500.0, 187500.0, 187500.0, 187500.0, 187500.0, 187500.0, 65245.546727841705, -186726.78610405757, 0.066, -0.01, 0.98, 192.0, 0.0, 0.0, 0.0, 0.0, 0.0, 0.0, 0.0, 0.0, 0.0, 1.708991573307458E9, 0.0, 2024-02-26 18:52:53.307
56.0, 187500.0, 187500.0, 187500.0, 187500.0, 187500.0, 187500.0, 65758.85453925784, -186730.98823201517, 0.066, -0.01, 0.98, 192.0, 0.0, 0.0, 0.0, 0.0, 0.0, 0.0, 0.0, 0.0, 0.0, 1.708991573310459E9, 0.0, 2024-02-26 18:52:53.310
57.0, 187500.0, 187500.0, 187500.0, 187500.0, 187500.0, 187500.0, 66047.97435378723, -186732.30698493804, 0.066, -0.008, 0.978, 192.0, 2.0, 16.0, 255.0, 192.0, 30.0, 144.0, 0.0, 0.0, 0.0, 1.708991573315443E9, 0.0, 2024-02-26 18:52:53.315
58.0, 187500.0, 187500.0, 187500.0, 187500.0, 187500.0, 187500.0, 65667.21238699107, -186719.94647025425, 0.066, -0.008, 0.978, 192.0, 0.0, 0.0, 0.0, 0.0, 0.0, 0.0, 0.0, 0.0, 0.0, 1.708991573319437E9, 0.0, 2024-02-26 18:52:53.319
59.0, 187500.0, 187500.0, 187500.0, 187500.0, 187500.0, 187500.0, 65550.469225701, -186713.19624342874, 0.066, -0.008, 0.978, 192.0, 0.0, 0.0, 0.0, 0.0, 0.0, 0.0, 0.0, 0.0, 0.0, 1.70899157332549E9, 0.0, 2024-02-26 18:52:53.325
60.0, 187500.0, 187500.0, 187500.0, 187500.0, 187500.0, 187500.0, 65888.62876756534, -186716.39254288585, 0.066, -0.008, 0.978, 192.0, 0.0, 0.0, 0.0, 0.0, 0.0, 0.0, 0.0, 0.0, 0.0, 1.708991573328503E9, 0.0, 2024-02-26 18:52:53.328
61.0, 187500.0, 187500.0, 187500.0, 187500.0, 187500.0, 187500.0, 66235.10315836706, -186718.69477256475, 0.066, -0.008, 0.978, 192.0, 0.0, 0.0, 0.0, 0.0, 0.0, 0.0, 0.0, 0.0, 0.0, 1.70899157333148E9, 0.0, 2024-02-26 18:52:53.331
62.0, 187500.0, 187500.0, 187500.0, 187500.0, 187500.0, 187500.0, 65813.57160968443, -186707.6753625483, 0.066, -0.008, 0.978, 192.0, 0.0, 0.0, 0.0, 0.0, 0.0, 0.0, 0.0, 0.0, 0.0, 1.708991573334476E9, 0.0, 2024-02-26 18:52:53.334
63.0, 187500.0, 187500.0, 187500.0, 187500.0, 187500.0, 187500.0, 65562.94149910707, -186702.3779991124, 0.066, -0.008, 0.978, 192.0, 0.0, 0.0, 0.0, 0.0, 0.0, 0.0, 0.0, 0.0, 0.0, 1.708991573338489E9, 0.0, 2024-02-26 18:52:53.338
64.0, 187500.0, 187500.0, 187500.0, 187500.0, 187500.0, 187500.0, 65705.50092524302, -186704.63552530238, 0.066, -0.008, 0.978, 192.0, 0.0, 0.0, 0.0, 0.0, 0.0, 0.0, 0.0, 0.0, 0.0, 1.708991573343491E9, 0.0, 2024-02-26 18:52:53.343
65.0, 187500.0, 187500.0, 187500.0, 187500.0, 187500.0, 187500.0, 66064.80521736208, -186707.9659352262, 0.066, -0.008, 0.978, 192.0, 0.0, 0.0, 0.0, 0.0, 0.0, 0.0, 0.0, 0.0, 0.0, 1.70899157334766E9, 0.0, 2024-02-26 18:52:53.347
66.0, 187500.0, 187500.0, 187500.0, 187500.0, 187500.0, 187500.0, 65658.09287525331, -186702.53446132358, 0.066, -0.008, 0.978, 192.0, 0.0, 0.0, 0.0, 0.0, 0.0, 0.0, 0.0, 0.0, 0.0, 1.70899157335048E9, 0.0, 2024-02-26 18:52:53.350
67.0, 187500.0, 187500.0, 187500.0, 187500.0, 187500.0, 187500.0, 65294.18412377645, -186694.48783331967, 0.068, -0.012, 0.982, 192.0, 2.0, 32.0, 255.0, 160.0, 30.0, 176.0, 0.0, 0.0, 0.0, 1.708991573354478E9, 0.0, 2024-02-26 18:52:53.354
68.0, 187500.0, 187500.0, 187500.0, 187500.0, 187500.0, 187500.0, 65296.03931856625, -186696.63360078738, 0.068, -0.012, 0.982, 192.0, 0.0, 0.0, 0.0, 0.0, 0.0, 0.0, 0.0, 0.0, 0.0, 1.708991573358494E9, 0.0, 2024-02-26 18:52:53.358
69.0, 187500.0, 187500.0, 187500.0, 187500.0, 187500.0, 187500.0, 65631.44959586258, -186704.9708014692, 0.068, -0.012, 0.982, 192.0, 0.0, 0.0, 0.0, 0.0, 0.0, 0.0, 0.0, 0.0, 0.0, 1.70899157336249E9, 0.0, 2024-02-26 18:52:53.362
70.0, 187500.0, 187500.0, 187500.0, 187500.0, 187500.0, 187500.0, 65239.64586730551, -186700.29928687803, 0.068, -0.012, 0.982, 192.0, 0.0, 0.0, 0.0, 0.0, 0.0, 0.0, 0.0, 0.0, 0.0, 1.708991573366521E9, 0.0, 2024-02-26 18:52:53.366
71.0, 187500.0, 187500.0, 187500.0, 187500.0, 187500.0, 187500.0, 64753.00368702456, -186694.97957169768, 0.068, -0.012, 0.982, 192.0, 0.0, 0.0, 0.0, 0.0, 0.0, 0.0, 0.0, 0.0, 0.0, 1.708991573371519E9, 0.0, 2024-02-26 18:52:53.371
72.0, 187500.0, 187500.0, 187500.0, 187500.0, 187500.0, 187500.0, 64557.224757340526, -186695.73953100917, 0.068, -0.012, 0.982, 192.0, 0.0, 0.0, 0.0, 0.0, 0.0, 0.0, 0.0, 0.0, 0.0, 1.708991573375516E9, 0.0, 2024-02-26 18:52:53.375
73.0, 187500.0, 187500.0, 187500.0, 187500.0, 187500.0, 187500.0, 64847.3056968815, -186701.6180398009, 0.068, -0.012, 0.982, 192.0, 0.0, 0.0, 0.0, 0.0, 0.0, 0.0, 0.0, 0.0, 0.0, 1.708991573378538E9, 0.0, 2024-02-26 18:52:53.378
74.0, 187500.0, 187500.0, 187500.0, 187500.0, 187500.0, 187500.0, 64580.716440763055, -186699.2711066331, 0.068, -0.012, 0.982, 192.0, 0.0, 0.0, 0.0, 0.0, 0.0, 0.0, 0.0, 0.0, 0.0, 1.70899157338253E9, 0.0, 2024-02-26 18:52:53.382
75.0, 187500.0, 187500.0, 187500.0, 187500.0, 187500.0, 187500.0, 64019.21826830129, -186696.074807176, 0.068, -0.012, 0.982, 192.0, 0.0, 0.0, 0.0, 0.0, 0.0, 0.0, 0.0, 0.0, 0.0, 1.708991573386532E9, 0.0, 2024-02-26 18:52:53.386
76.0, 187500.0, 187500.0, 187500.0, 187500.0, 187500.0, 187500.0, 63798.986530183145, -186695.98540019817, 0.068, -0.012, 0.982, 192.0, 0.0, 0.0, 0.0, 0.0, 0.0, 0.0, 0.0, 0.0, 0.0, 1.70899157339053E9, 0.0, 2024-02-26 18:52:53.390
77.0, 187500.0, 187500.0, 187500.0, 187500.0, 187500.0, 187500.0, 64066.49220782426, -186701.2604118896, 0.066, -0.01, 0.98, 192.0, 2.0, 16.0, 255.0, 176.0, 30.0, 160.0, 0.0, 0.0, 0.0, 1.708991573394538E9, 0.0, 2024-02-26 18:52:53.394
78.0, 187500.0, 187500.0, 187500.0, 187500.0, 187500.0, 187500.0, 63977.733430592234, -186698.84642348843, 0.066, -0.01, 0.98, 192.0, 0.0, 0.0, 0.0, 0.0, 0.0, 0.0, 0.0, 0.0, 0.0, 1.70899157339952E9, 0.0, 2024-02-26 18:52:53.399
79.0, 187500.0, 187500.0, 187500.0, 187500.0, 187500.0, 187500.0, 63410.289694105355, -186690.77744374008, 0.066, -0.01, 0.98, 192.0, 0.0, 0.0, 0.0, 0.0, 0.0, 0.0, 0.0, 0.0, 0.0, 1.70899157340356E9, 0.0, 2024-02-26 18:52:53.403
80.0, 187500.0, 187500.0, 187500.0, 187500.0, 187500.0, 187500.0, 63161.87240622907, -186690.08453966197, 0.066, -0.01, 0.98, 192.0, 0.0, 0.0, 0.0, 0.0, 0.0, 0.0, 0.0, 0.0, 0.0, 1.708991573406598E9, 0.0, 2024-02-26 18:52:53.406
81.0, 187500.0, 187500.0, 187500.0, 187500.0, 187500.0, 187500.0, 63412.07783366178, -186693.92903970828, 0.066, -0.01, 0.98, 192.0, 0.0, 0.0, 0.0, 0.0, 0.0, 0.0, 0.0, 0.0, 0.0, 1.70899157341056E9, 0.0, 2024-02-26 18:52:53.410
82.0, 187500.0, 187500.0, 187500.0, 187500.0, 187500.0, 187500.0, 63529.31273332986, -186696.43243508728, 0.066, -0.01, 0.98, 192.0, 0.0, 0.0, 0.0, 0.0, 0.0, 0.0, 0.0, 0.0, 0.0, 1.708991573414563E9, 0.0, 2024-02-26 18:52:53.414
83.0, 187500.0, 187500.0, 187500.0, 187500.0, 187500.0, 187500.0, 62989.5181047342, -186688.1622896388, 0.066, -0.01, 0.98, 192.0, 0.0, 0.0, 0.0, 0.0, 0.0, 0.0, 0.0, 0.0, 0.0, 1.708991573418551E9, 0.0, 2024-02-26 18:52:53.418
84.0, 187500.0, 187500.0, 187500.0, 187500.0, 187500.0, 187500.0, 62706.38855771883, -186686.32944659347, 0.066, -0.01, 0.98, 192.0, 0.0, 0.0, 0.0, 0.0, 0.0, 0.0, 0.0, 0.0, 0.0, 1.708991573422554E9, 0.0, 2024-02-26 18:52:53.422
85.0, 187500.0, 187500.0, 187500.0, 187500.0, 187500.0, 187500.0, 62870.85269342097, -186691.1127199069, 0.066, -0.01, 0.98, 192.0, 0.0, 0.0, 0.0, 0.0, 0.0, 0.0, 0.0, 0.0, 0.0, 1.708991573426588E9, 0.0, 2024-02-26 18:52:53.426
86.0, 187500.0, 187500.0, 187500.0, 187500.0, 187500.0, 187500.0, 63090.950321072385, -186693.43730133027, 0.066, -0.01, 0.98, 192.0, 0.0, 0.0, 0.0, 0.0, 0.0, 0.0, 0.0, 0.0, 0.0, 1.70899157343167E9, 0.0, 2024-02-26 18:52:53.431
87.0, 187500.0, 187500.0, 187500.0, 187500.0, 187500.0, 187500.0, 62563.829131582876, -186683.9154581923, 0.076, -0.008, 0.98, 192.0, 2.0, 96.0, 255.0, 192.0, 30.0, 160.0, 0.0, 0.0, 0.0, 1.708991573434671E9, 0.0, 2024-02-26 18:52:53.434
88.0, 187500.0, 187500.0, 187500.0, 187500.0, 187500.0, 187500.0, 62201.30618826225, -186680.0039029126, 0.076, -0.008, 0.98, 192.0, 0.0, 0.0, 0.0, 0.0, 0.0, 0.0, 0.0, 0.0, 0.0, 1.708991573438675E9, 0.0, 2024-02-26 18:52:53.438
89.0, 187500.0, 187500.0, 187500.0, 187500.0, 187500.0, 187500.0, 62244.55681378327, -186684.0048651701, 0.076, -0.008, 0.98, 192.0, 0.0, 0.0, 0.0, 0.0, 0.0, 0.0, 0.0, 0.0, 0.0, 1.70899157344268E9, 0.0, 2024-02-26 18:52:53.442
90.0, 187500.0, 187500.0, 187500.0, 187500.0, 187500.0, 187500.0, 62553.10029424433, -186690.64333327336, 0.076, -0.008, 0.98, 192.0, 0.0, 0.0, 0.0, 0.0, 0.0, 0.0, 0.0, 0.0, 0.0, 1.708991573446662E9, 0.0, 2024-02-26 18:52:53.446
91.0, 187500.0, 187500.0, 187500.0, 187500.0, 187500.0, 187500.0, 62135.770873519294, -186683.49077504766, 0.076, -0.008, 0.98, 192.0, 0.0, 0.0, 0.0, 0.0, 0.0, 0.0, 0.0, 0.0, 0.0, 1.708991573450659E9, 0.0, 2024-02-26 18:52:53.450
92.0, 187500.0, 187500.0, 187500.0, 187500.0, 187500.0, 187500.0, 61732.59010703446, -186677.6122662559, 0.076, -0.008, 0.98, 192.0, 0.0, 0.0, 0.0, 0.0, 0.0, 0.0, 0.0, 0.0, 0.0, 1.708991573454672E9, 0.0, 2024-02-26 18:52:53.454
93.0, 187500.0, 187500.0, 187500.0, 187500.0, 187500.0, 187500.0, 61697.60962696191, -186677.96989416718, 0.076, -0.008, 0.98, 192.0, 0.0, 0.0, 0.0, 0.0, 0.0, 0.0, 0.0, 0.0, 0.0, 1.708991573459673E9, 0.0, 2024-02-26 18:52:53.459
94.0, 187500.0, 187500.0, 187500.0, 187500.0, 187500.0, 187500.0, 62056.15395976949, -186685.3683215819, 0.076, -0.008, 0.98, 192.0, 0.0, 0.0, 0.0, 0.0, 0.0, 0.0, 0.0, 0.0, 0.0, 1.708991573462678E9, 0.0, 2024-02-26 18:52:53.462
95.0, 187500.0, 187500.0, 187500.0, 187500.0, 187500.0, 187500.0, 61729.43851106626, -186682.57435352498, 0.076, -0.008, 0.98, 192.0, 0.0, 0.0, 0.0, 0.0, 0.0, 0.0, 0.0, 0.0, 0.0, 1.70899157346768E9, 0.0, 2024-02-26 18:52:53.467
96.0, 187500.0, 187500.0, 187500.0, 187500.0, 187500.0, 187500.0, 61240.67291506207, -186676.5617342665, 0.076, -0.008, 0.98, 192.0, 0.0, 0.0, 0.0, 0.0, 0.0, 0.0, 0.0, 0.0, 0.0, 1.708991573470673E9, 0.0, 2024-02-26 18:52:53.470
97.0, 187500.0, 187500.0, 187500.0, 187500.0, 187500.0, 187500.0, 61138.6819051125, -186676.1146993774, 0.07, -0.006, 0.982, 192.0, 2.0, 48.0, 255.0, 208.0, 30.0, 176.0, 0.0, 0.0, 0.0, 1.708991573474678E9, 0.0, 2024-02-26 18:52:53.474
98.0, 187500.0, 187500.0, 187500.0, 187500.0, 187500.0, 187500.0, 61513.07362473889, -186683.69194074775, 0.07, -0.006, 0.982, 192.0, 0.0, 0.0, 0.0, 0.0, 0.0, 0.0, 0.0, 0.0, 0.0, 1.708991573478672E9, 0.0, 2024-02-26 18:52:53.478
99.0, 187500.0, 187500.0, 187500.0, 187500.0, 187500.0, 187500.0, 61331.264535339425, -186682.93198143627, 0.07, -0.006, 0.982, 192.0, 0.0, 0.0, 0.0, 0.0, 0.0, 0.0, 0.0, 0.0, 0.0, 1.708991573483682E9, 0.0, 2024-02-26 18:52:53.483
100.0, 187500.0, 187500.0, 187500.0, 187500.0, 187500.0, 187500.0, 60728.572097846525, -186677.1652313668, 0.07, -0.006, 0.982, 192.0, 0.0, 0.0, 0.0, 0.0, 0.0, 0.0, 0.0, 0.0, 0.0, 1.708991573486687E9, 0.0, 2024-02-26 18:52:53.486
101.0, 187500.0, 187500.0, 187500.0, 187500.0, 187500.0, 187500.0, 60441.8662717183, -186679.69097849025, 0.07, -0.006, 0.982, 192.0, 0.0, 0.0, 0.0, 0.0, 0.0, 0.0, 0.0, 0.0, 0.0, 1.708991573489682E9, 0.0, 2024-02-26 18:52:53.489
102.0, 187500.0, 187500.0, 187500.0, 187500.0, 187500.0, 187500.0, 60612.879468545856, -186687.7599582386, 0.07, -0.006, 0.982, 192.0, 0.0, 0.0, 0.0, 0.0, 0.0, 0.0, 0.0, 0.0, 0.0, 1.70899157349469E9, 0.0, 2024-02-26 18:52:53.494
103.0, 187500.0, 187500.0, 187500.0, 187500.0, 187500.0, 187500.0, 60466.78846678597, -186690.37511233988, 0.07, -0.006, 0.982, 192.0, 0.0, 0.0, 0.0, 0.0, 0.0, 0.0, 0.0, 0.0, 0.0, 1.708991573498672E9, 0.0, 2024-02-26 18:52:53.498
104.0, 187500.0, 187500.0, 187500.0, 187500.0, 187500.0, 187500.0, 59763.82610366656, -186683.7142924922, 0.07, -0.006, 0.982, 192.0, 0.0, 0.0, 0.0, 0.0, 0.0, 0.0, 0.0, 0.0, 0.0, 1.708991573502682E9, 0.0, 2024-02-26 18:52:53.502
105.0, 187500.0, 187500.0, 187500.0, 187500.0, 187500.0, 187500.0, 59343.63565965124, -186686.1059291489, 0.07, -0.006, 0.982, 192.0, 0.0, 0.0, 0.0, 0.0, 0.0, 0.0, 0.0, 0.0, 0.0, 1.70899157350666E9, 0.0, 2024-02-26 18:52:53.506
106.0, 187500.0, 187500.0, 187500.0, 187500.0, 187500.0, 187500.0, 59386.439250283154, -186698.15351941032, 0.07200000000000001, -0.006, 0.98, 192.0, 2.0, 64.0, 255.0, 208.0, 30.0, 160.0, 0.0, 0.0, 0.0, 1.708991573510661E9, 0.0, 2024-02-26 18:52:53.510
107.0, 187500.0, 187500.0, 187500.0, 187500.0, 187500.0, 187500.0, 59315.8524412933, -186705.1272636804, 0.07200000000000001, -0.006, 0.98, 192.0, 0.0, 0.0, 0.0, 0.0, 0.0, 0.0, 0.0, 0.0, 0.0, 1.708991573514676E9, 0.0, 2024-02-26 18:52:53.514
108.0, 187500.0, 187500.0, 187500.0, 187500.0, 187500.0, 187500.0, 58555.848426323944, -186699.94165896674, 0.07200000000000001, -0.006, 0.98, 192.0, 0.0, 0.0, 0.0, 0.0, 0.0, 0.0, 0.0, 0.0, 0.0, 1.708991573517669E9, 0.0, 2024-02-26 18:52:53.517
109.0, 187500.0, 187500.0, 187500.0, 187500.0, 187500.0, 187500.0, 58039.59018463972, -186698.33233336598, 0.07200000000000001, -0.006, 0.98, 192.0, 0.0, 0.0, 0.0, 0.0, 0.0, 0.0, 0.0, 0.0, 0.0, 1.708991573522689E9, 0.0, 2024-02-26 18:52:53.522
110.0, 187500.0, 187500.0, 187500.0, 187500.0, 187500.0, 187500.0, 58018.06545472926, -186709.39644687134, 0.07200000000000001, -0.006, 0.98, 192.0, 0.0, 0.0, 0.0, 0.0, 0.0, 0.0, 0.0, 0.0, 0.0, 1.708991573526682E9, 0.0, 2024-02-26 18:52:53.526
111.0, 187500.0, 187500.0, 187500.0, 187500.0, 187500.0, 187500.0, 58089.94866489752, -186719.36532489842, 0.07200000000000001, -0.006, 0.98, 192.0, 0.0, 0.0, 0.0, 0.0, 0.0, 0.0, 0.0, 0.0, 0.0, 1.708991573530701E9, 0.0, 2024-02-26 18:52:53.530
112.0, 187500.0, 187500.0, 187500.0, 187500.0, 187500.0, 187500.0, 57427.91234587578, -186716.05726671903, 0.07200000000000001, -0.006, 0.98, 192.0, 0.0, 0.0, 0.0, 0.0, 0.0, 0.0, 0.0, 0.0, 0.0, 1.708991573534697E9, 0.0, 2024-02-26 18:52:53.534
113.0, 187500.0, 187500.0, 187500.0, 187500.0, 187500.0, 187500.0, 56918.1361100836, -186716.0796184635, 0.07200000000000001, -0.006, 0.98, 192.0, 0.0, 0.0, 0.0, 0.0, 0.0, 0.0, 0.0, 0.0, 0.0, 1.708991573538708E9, 0.0, 2024-02-26 18:52:53.538
114.0, 187500.0, 187500.0, 187500.0, 187500.0, 187500.0, 187500.0, 56807.494975029826, -186720.50526386563, 0.07200000000000001, -0.006, 0.98, 192.0, 0.0, 0.0, 0.0, 0.0, 0.0, 0.0, 0.0, 0.0, 0.0, 1.708991573542697E9, 0.0, 2024-02-26 18:52:53.542
115.0, 187500.0, 187500.0, 187500.0, 187500.0, 187500.0, 187500.0, 57005.86670707068, -186730.94352852626, 0.07200000000000001, -0.006, 0.98, 192.0, 0.0, 0.0, 0.0, 0.0, 0.0, 0.0, 0.0, 0.0, 0.0, 1.70899157354568E9, 0.0, 2024-02-26 18:52:53.545
116.0, 187500.0, 187500.0, 187500.0, 187500.0, 187500.0, 187500.0, 56473.78343031209, -186729.24479594766, 0.074, -0.014, 0.982, 192.0, 2.0, 80.0, 255.0, 144.0, 30.0, 176.0, 0.0, 0.0, 0.0, 1.708991573550728E9, 0.0, 2024-02-26 18:52:53.550
117.0, 187500.0, 187500.0, 187500.0, 187500.0, 187500.0, 187500.0, 55918.320228853256, -186725.48970287916, 0.074, -0.014, 0.982, 192.0, 0.0, 0.0, 0.0, 0.0, 0.0, 0.0, 0.0, 0.0, 0.0, 1.708991573554728E9, 0.0, 2024-02-26 18:52:53.554
118.0, 187500.0, 187500.0, 187500.0, 187500.0, 187500.0, 187500.0, 55758.505255997814, -186729.73653432567, 0.074, -0.014, 0.982, 192.0, 0.0, 0.0, 0.0, 0.0, 0.0, 0.0, 0.0, 0.0, 0.0, 1.708991573558734E9, 0.0, 2024-02-26 18:52:53.558
119.0, 187500.0, 187500.0, 187500.0, 187500.0, 187500.0, 187500.0, 56035.28690758788, -186739.5265983971, 0.074, -0.014, 0.982, 192.0, 0.0, 0.0, 0.0, 0.0, 0.0, 0.0, 0.0, 0.0, 0.0, 1.70899157356273E9, 0.0, 2024-02-26 18:52:53.562
120.0, 187500.0, 187500.0, 187500.0, 187500.0, 187500.0, 187500.0, 55662.81743798464, -186738.58782512997, 0.074, -0.014, 0.982, 192.0, 0.0, 0.0, 0.0, 0.0, 0.0, 0.0, 0.0, 0.0, 0.0, 1.708991573566744E9, 0.0, 2024-02-26 18:52:53.566
121.0, 187500.0, 187500.0, 187500.0, 187500.0, 187500.0, 187500.0, 55121.48053902156, -186734.2739384501, 0.074, -0.014, 0.982, 192.0, 0.0, 0.0, 0.0, 0.0, 0.0, 0.0, 0.0, 0.0, 0.0, 1.708991573570723E9, 0.0, 2024-02-26 18:52:53.570
122.0, 187500.0, 187500.0, 187500.0, 187500.0, 187500.0, 187500.0, 54948.09805728174, -186736.15148498435, 0.074, -0.014, 0.982, 192.0, 0.0, 0.0, 0.0, 0.0, 0.0, 0.0, 0.0, 0.0, 0.0, 1.708991573573722E9, 0.0, 2024-02-26 18:52:53.573
123.0, 187500.0, 187500.0, 187500.0, 187500.0, 187500.0, 187500.0, 55254.13814236381, -186744.19811298826, 0.074, -0.014, 0.982, 192.0, 0.0, 0.0, 0.0, 0.0, 0.0, 0.0, 0.0, 0.0, 0.0, 1.708991573577723E9, 0.0, 2024-02-26 18:52:53.577
124.0, 187500.0, 187500.0, 187500.0, 187500.0, 187500.0, 187500.0, 55098.9052771217, -186744.71220311074, 0.074, -0.014, 0.982, 192.0, 0.0, 0.0, 0.0, 0.0, 0.0, 0.0, 0.0, 0.0, 0.0, 1.708991573582748E9, 0.0, 2024-02-26 18:52:53.582
125.0, 187500.0, 187500.0, 187500.0, 187500.0, 187500.0, 187500.0, 54558.998889803755, -186736.55381638455, 0.074, -0.014, 0.982, 192.0, 0.0, 0.0, 0.0, 0.0, 0.0, 0.0, 0.0, 0.0, 0.0, 1.708991573586739E9, 0.0, 2024-02-26 18:52:53.586
126.0, 187500.0, 187500.0, 187500.0, 187500.0, 187500.0, 187500.0, 54379.87200973893, -186734.00571751664, 0.07200000000000001, -0.01, 0.982, 192.0, 2.0, 64.0, 255.0, 176.0, 30.0, 176.0, 0.0, 0.0, 0.0, 1.708991573590793E9, 0.0, 2024-02-26 18:52:53.590
127.0, 187500.0, 187500.0, 187500.0, 187500.0, 187500.0, 187500.0, 54703.45821421841, -186741.44884842026, 0.07200000000000001, -0.01, 0.982, 192.0, 0.0, 0.0, 0.0, 0.0, 0.0, 0.0, 0.0, 0.0, 0.0, 1.708991573594758E9, 0.0, 2024-02-26 18:52:53.594
128.0, 187500.0, 187500.0, 187500.0, 187500.0, 187500.0, 187500.0, 54761.952729457946, -186745.80743858905, 0.07200000000000001, -0.01, 0.982, 192.0, 0.0, 0.0, 0.0, 0.0, 0.0, 0.0, 0.0, 0.0, 0.0, 1.708991573598764E9, 0.0, 2024-02-26 18:52:53.598
129.0, 187500.0, 187500.0, 187500.0, 187500.0, 187500.0, 187500.0, 54258.92672049126, -186736.97849952918, 0.07200000000000001, -0.01, 0.982, 192.0, 0.0, 0.0, 0.0, 0.0, 0.0, 0.0, 0.0, 0.0, 0.0, 1.708991573601733E9, 0.0, 2024-02-26 18:52:53.601
130.0, 187500.0, 187500.0, 187500.0, 187500.0, 187500.0, 187500.0, 54068.40045075423, -186735.39152567287, 0.07200000000000001, -0.01, 0.982, 192.0, 0.0, 0.0, 0.0, 0.0, 0.0, 0.0, 0.0, 0.0, 0.0, 1.708991573605771E9, 0.0, 2024-02-26 18:52:53.605
131.0, 187500.0, 187500.0, 187500.0, 187500.0, 187500.0, 187500.0, 54346.32204131151, -186742.320566454, 0.07200000000000001, -0.01, 0.982, 192.0, 0.0, 0.0, 0.0, 0.0, 0.0, 0.0, 0.0, 0.0, 0.0, 1.708991573610761E9, 0.0, 2024-02-26 18:52:53.610
132.0, 187500.0, 187500.0, 187500.0, 187500.0, 187500.0, 187500.0, 54578.511962713244, -186745.2709967221, 0.07200000000000001, -0.01, 0.982, 192.0, 0.0, 0.0, 0.0, 0.0, 0.0, 0.0, 0.0, 0.0, 0.0, 1.708991573614761E9, 0.0, 2024-02-26 18:52:53.614
133.0, 187500.0, 187500.0, 187500.0, 187500.0, 187500.0, 187500.0, 54095.490765034054, -186737.96197628524, 0.07200000000000001, -0.01, 0.982, 192.0, 0.0, 0.0, 0.0, 0.0, 0.0, 0.0, 0.0, 0.0, 0.0, 1.708991573618762E9, 0.0, 2024-02-26 18:52:53.618
134.0, 187500.0, 187500.0, 187500.0, 187500.0, 187500.0, 187500.0, 53871.83921001425, -186737.80551407405, 0.07200000000000001, -0.01, 0.982, 192.0, 0.0, 0.0, 0.0, 0.0, 0.0, 0.0, 0.0, 0.0, 0.0, 1.708991573622764E9, 0.0, 2024-02-26 18:52:53.622
135.0, 187500.0, 187500.0, 187500.0, 187500.0, 187500.0, 187500.0, 54082.571456738886, -186741.69471760927, 0.07200000000000001, -0.01, 0.982, 192.0, 0.0, 0.0, 0.0, 0.0, 0.0, 0.0, 0.0, 0.0, 0.0, 1.70899157362578E9, 0.0, 2024-02-26 18:52:53.625
136.0, 187500.0, 187500.0, 187500.0, 187500.0, 187500.0, 187500.0, 54443.663888414376, -186747.50617116765, 0.074, -0.006, 0.984, 192.0, 2.0, 80.0, 255.0, 208.0, 30.0, 192.0, 0.0, 0.0, 0.0, 1.7089915736298E9, 0.0, 2024-02-26 18:52:53.629
137.0, 187500.0, 187500.0, 187500.0, 187500.0, 187500.0, 187500.0, 54041.69011613013, -186739.41483967484, 0.074, -0.006, 0.984, 192.0, 0.0, 0.0, 0.0, 0.0, 0.0, 0.0, 0.0, 0.0, 0.0, 1.70899157363381E9, 0.0, 2024-02-26 18:52:53.633
138.0, 187500.0, 187500.0, 187500.0, 187500.0, 187500.0, 187500.0, 53761.37688891612, -186733.08929599397, 0.074, -0.006, 0.984, 192.0, 0.0, 0.0, 0.0, 0.0, 0.0, 0.0, 0.0, 0.0, 0.0, 1.708991573638805E9, 0.0, 2024-02-26 18:52:53.638
139.0, 187500.0, 187500.0, 187500.0, 187500.0, 187500.0, 187500.0, 53877.740070550455, -186734.72097333922, 0.074, -0.006, 0.984, 192.0, 0.0, 0.0, 0.0, 0.0, 0.0, 0.0, 0.0, 0.0, 0.0, 1.708991573642812E9, 0.0, 2024-02-26 18:52:53.642
140.0, 187500.0, 187500.0, 187500.0, 187500.0, 187500.0, 187500.0, 54331.56988997101, -186741.53825539807, 0.074, -0.006, 0.984, 192.0, 0.0, 0.0, 0.0, 0.0, 0.0, 0.0, 0.0, 0.0, 0.0, 1.708991573646825E9, 0.0, 2024-02-26 18:52:53.646
141.0, 187500.0, 187500.0, 187500.0, 187500.0, 187500.0, 187500.0, 54066.36644200879, -186734.78802857257, 0.074, -0.006, 0.984, 192.0, 0.0, 0.0, 0.0, 0.0, 0.0, 0.0, 0.0, 0.0, 0.0, 1.708991573649782E9, 0.0, 2024-02-26 18:52:53.649
142.0, 187500.0, 187500.0, 187500.0, 187500.0, 187500.0, 187500.0, 53767.30010119678, -186727.38960115786, 0.074, -0.006, 0.984, 192.0, 0.0, 0.0, 0.0, 0.0, 0.0, 0.0, 0.0, 0.0, 0.0, 1.708991573653823E9, 0.0, 2024-02-26 18:52:53.653
143.0, 187500.0, 187500.0, 187500.0, 187500.0, 187500.0, 187500.0, 53835.62938399665, -186727.0766767355, 0.074, -0.006, 0.984, 192.0, 0.0, 0.0, 0.0, 0.0, 0.0, 0.0, 0.0, 0.0, 0.0, 1.708991573657846E9, 0.0, 2024-02-26 18:52:53.657
144.0, 187500.0, 187500.0, 187500.0, 187500.0, 187500.0, 187500.0, 54345.003288388645, -186733.89395879436, 0.074, -0.006, 0.984, 192.0, 0.0, 0.0, 0.0, 0.0, 0.0, 0.0, 0.0, 0.0, 0.0, 1.708991573661854E9, 0.0, 2024-02-26 18:52:53.661
145.0, 187500.0, 187500.0, 187500.0, 187500.0, 187500.0, 187500.0, 54234.0492289125, -186730.07181049252, 0.074, -0.006, 0.984, 192.0, 0.0, 0.0, 0.0, 0.0, 0.0, 0.0, 0.0, 0.0, 0.0, 1.708991573666811E9, 0.0, 2024-02-26 18:52:53.666
146.0, 187500.0, 187500.0, 187500.0, 187500.0, 187500.0, 187500.0, 53897.00727427093, -186722.69573482225, 0.068, -0.008, 0.98, 192.0, 2.0, 32.0, 255.0, 192.0, 30.0, 160.0, 0.0, 0.0, 0.0, 1.708991573670803E9, 0.0, 2024-02-26 18:52:53.670
147.0, 187500.0, 187500.0, 187500.0, 187500.0, 187500.0, 187500.0, 53905.38917844167, -186719.74530455415, 0.068, -0.008, 0.98, 192.0, 0.0, 0.0, 0.0, 0.0, 0.0, 0.0, 0.0, 0.0, 0.0, 1.708991573674878E9, 0.0, 2024-02-26 18:52:53.674
148.0, 187500.0, 187500.0, 187500.0, 187500.0, 187500.0, 187500.0, 54398.53571635911, -186725.10972322343, 0.068, -0.008, 0.98, 192.0, 0.0, 0.0, 0.0, 0.0, 0.0, 0.0, 0.0, 0.0, 0.0, 1.708991573677838E9, 0.0, 2024-02-26 18:52:53.677
149.0, 187500.0, 187500.0, 187500.0, 187500.0, 187500.0, 187500.0, 54435.460798199274, -186724.84150228996, 0.068, -0.008, 0.98, 192.0, 0.0, 0.0, 0.0, 0.0, 0.0, 0.0, 0.0, 0.0, 0.0, 1.70899157368183E9, 0.0, 2024-02-26 18:52:53.681
150.0, 187500.0, 187500.0, 187500.0, 187500.0, 187500.0, 187500.0, 54022.06528449837, -186717.44307487525, 0.068, -0.008, 0.98, 192.0, 0.0, 0.0, 0.0, 0.0, 0.0, 0.0, 0.0, 0.0, 0.0, 1.708991573685941E9, 0.0, 2024-02-26 18:52:53.685
151.0, 187500.0, 187500.0, 187500.0, 187500.0, 187500.0, 187500.0, 53915.17924251309, -186715.81139753002, 0.068, -0.008, 0.98, 192.0, 0.0, 0.0, 0.0, 0.0, 0.0, 0.0, 0.0, 0.0, 0.0, 1.708991573689861E9, 0.0, 2024-02-26 18:52:53.689
152.0, 187500.0, 187500.0, 187500.0, 187500.0, 187500.0, 187500.0, 54283.200714969724, -186723.03101098907, 0.068, -0.008, 0.98, 192.0, 0.0, 0.0, 0.0, 0.0, 0.0, 0.0, 0.0, 0.0, 0.0, 1.70899157369488E9, 0.0, 2024-02-26 18:52:53.694
153.0, 187500.0, 187500.0, 187500.0, 187500.0, 187500.0, 187500.0, 54415.32187644504, -186723.94743251175, 0.068, -0.008, 0.98, 192.0, 0.0, 0.0, 0.0, 0.0, 0.0, 0.0, 0.0, 0.0, 0.0, 1.708991573698892E9, 0.0, 2024-02-26 18:52:53.698
154.0, 187500.0, 187500.0, 187500.0, 187500.0, 187500.0, 187500.0, 53926.7797978854, -186715.09614170744, 0.068, -0.008, 0.98, 192.0, 0.0, 0.0, 0.0, 0.0, 0.0, 0.0, 0.0, 0.0, 0.0, 1.708991573702877E9, 0.0, 2024-02-26 18:52:53.702
155.0, 187500.0, 187500.0, 187500.0, 187500.0, 187500.0, 187500.0, 53722.68601926399, -186713.30800215102, 0.068, -0.008, 0.98, 192.0, 0.0, 0.0, 0.0, 0.0, 0.0, 0.0, 0.0, 0.0, 0.0, 1.708991573705884E9, 0.0, 2024-02-26 18:52:53.705
156.0, 187500.0, 187500.0, 187500.0, 187500.0, 187500.0, 187500.0, 53972.86909495224, -186720.080580721, 0.07, -0.006, 0.978, 192.0, 2.0, 48.0, 255.0, 208.0, 30.0, 144.0, 0.0, 0.0, 0.0, 1.708991573709888E9, 0.0, 2024-02-26 18:52:53.709
157.0, 187500.0, 187500.0, 187500.0, 187500.0, 187500.0, 187500.0, 54208.612943722364, -186722.53927261106, 0.07, -0.006, 0.978, 192.0, 0.0, 0.0, 0.0, 0.0, 0.0, 0.0, 0.0, 0.0, 0.0, 1.708991573713881E9, 0.0, 2024-02-26 18:52:53.713
158.0, 187500.0, 187500.0, 187500.0, 187500.0, 187500.0, 187500.0, 53735.761789770346, -186716.61606033042, 0.07, -0.006, 0.978, 192.0, 0.0, 0.0, 0.0, 0.0, 0.0, 0.0, 0.0, 0.0, 0.0, 1.708991573717898E9, 0.0, 2024-02-26 18:52:53.717
159.0, 187500.0, 187500.0, 187500.0, 187500.0, 187500.0, 187500.0, 53499.14622296646, -186713.46446436222, 0.07, -0.006, 0.978, 192.0, 0.0, 0.0, 0.0, 0.0, 0.0, 0.0, 0.0, 0.0, 0.0, 1.7089915737219E9, 0.0, 2024-02-26 18:52:53.721
160.0, 187500.0, 187500.0, 187500.0, 187500.0, 187500.0, 187500.0, 53686.878524646585, -186719.85706327643, 0.07, -0.006, 0.978, 192.0, 0.0, 0.0, 0.0, 0.0, 0.0, 0.0, 0.0, 0.0, 0.0, 1.708991573726905E9, 0.0, 2024-02-26 18:52:53.726
161.0, 187500.0, 187500.0, 187500.0, 187500.0, 187500.0, 187500.0, 54047.0098313105, -186728.88716803637, 0.07, -0.006, 0.978, 192.0, 0.0, 0.0, 0.0, 0.0, 0.0, 0.0, 0.0, 0.0, 0.0, 1.708991573730906E9, 0.0, 2024-02-26 18:52:53.730
162.0, 187500.0, 187500.0, 187500.0, 187500.0, 187500.0, 187500.0, 53636.00595426631, -186723.67921157827, 0.07, -0.006, 0.978, 192.0, 0.0, 0.0, 0.0, 0.0, 0.0, 0.0, 0.0, 0.0, 0.0, 1.708991573733895E9, 0.0, 2024-02-26 18:52:53.733
163.0, 187500.0, 187500.0, 187500.0, 187500.0, 187500.0, 187500.0, 53308.26232531814, -186719.23121443167, 0.07, -0.006, 0.978, 192.0, 0.0, 0.0, 0.0, 0.0, 0.0, 0.0, 0.0, 0.0, 0.0, 1.708991573737916E9, 0.0, 2024-02-26 18:52:53.737
164.0, 187500.0, 187500.0, 187500.0, 187500.0, 187500.0, 187500.0, 53377.37391917395, -186724.14859821185, 0.07, -0.006, 0.978, 192.0, 0.0, 0.0, 0.0, 0.0, 0.0, 0.0, 0.0, 0.0, 0.0, 1.708991573741915E9, 0.0, 2024-02-26 18:52:53.741
165.0, 187500.0, 187500.0, 187500.0, 187500.0, 187500.0, 187500.0, 53781.538162414814, -186734.07277275002, 0.07, -0.006, 0.978, 192.0, 0.0, 0.0, 0.0, 0.0, 0.0, 0.0, 0.0, 0.0, 0.0, 1.708991573745922E9, 0.0, 2024-02-26 18:52:53.745
166.0, 187500.0, 187500.0, 187500.0, 187500.0, 187500.0, 187500.0, 53454.710954989314, -186731.34585992646, 0.068, -0.012, 0.984, 192.0, 2.0, 32.0, 255.0, 160.0, 30.0, 192.0, 0.0, 0.0, 0.0, 1.708991573750916E9, 0.0, 2024-02-26 18:52:53.750
167.0, 187500.0, 187500.0, 187500.0, 187500.0, 187500.0, 187500.0, 53036.95685111963, -186728.73070582518, 0.068, -0.012, 0.984, 192.0, 0.0, 0.0, 0.0, 0.0, 0.0, 0.0, 0.0, 0.0, 0.0, 1.708991573754929E9, 0.0, 2024-02-26 18:52:53.754
168.0, 187500.0, 187500.0, 187500.0, 187500.0, 187500.0, 187500.0, 52957.250530392, -186733.46927564972, 0.068, -0.012, 0.984, 192.0, 0.0, 0.0, 0.0, 0.0, 0.0, 0.0, 0.0, 0.0, 0.0, 1.708991573758916E9, 0.0, 2024-02-26 18:52:53.758
169.0, 187500.0, 187500.0, 187500.0, 187500.0, 187500.0, 187500.0, 53319.19232835679, -186743.10287750995, 0.068, -0.012, 0.984, 192.0, 0.0, 0.0, 0.0, 0.0, 0.0, 0.0, 0.0, 0.0, 0.0, 1.708991573761927E9, 0.0, 2024-02-26 18:52:53.761
170.0, 187500.0, 187500.0, 187500.0, 187500.0, 187500.0, 187500.0, 53094.400834369764, -186744.08635426598, 0.068, -0.012, 0.984, 192.0, 0.0, 0.0, 0.0, 0.0, 0.0, 0.0, 0.0, 0.0, 0.0, 1.708991573765916E9, 0.0, 2024-02-26 18:52:53.765
171.0, 187500.0, 187500.0, 187500.0, 187500.0, 187500.0, 187500.0, 52618.12986351608, -186738.81134257454, 0.068, -0.012, 0.984, 192.0, 0.0, 0.0, 0.0, 0.0, 0.0, 0.0, 0.0, 0.0, 0.0, 1.708991573769915E9, 0.0, 2024-02-26 18:52:53.769
172.0, 187500.0, 187500.0, 187500.0, 187500.0, 187500.0, 187500.0, 52480.57722813812, -186738.74428734116, 0.068, -0.012, 0.984, 192.0, 0.0, 0.0, 0.0, 0.0, 0.0, 0.0, 0.0, 0.0, 0.0, 1.708991573773913E9, 0.0, 2024-02-26 18:52:53.773
173.0, 187500.0, 187500.0, 187500.0, 187500.0, 187500.0, 187500.0, 52864.826067069305, -186748.0202612901, 0.068, -0.012, 0.984, 192.0, 0.0, 0.0, 0.0, 0.0, 0.0, 0.0, 0.0, 0.0, 0.0, 1.708991573778972E9, 0.0, 2024-02-26 18:52:53.778
174.0, 187500.0, 187500.0, 187500.0, 187500.0, 187500.0, 187500.0, 52823.02830493788, -186748.95903455725, 0.068, -0.012, 0.984, 192.0, 0.0, 0.0, 0.0, 0.0, 0.0, 0.0, 0.0, 0.0, 0.0, 1.70899157378296E9, 0.0, 2024-02-26 18:52:53.782
175.0, 187500.0, 187500.0, 187500.0, 187500.0, 187500.0, 187500.0, 52345.41622941688, -186741.0241652756, 0.068, -0.012, 0.984, 192.0, 0.0, 0.0, 0.0, 0.0, 0.0, 0.0, 0.0, 0.0, 0.0, 1.708991573785957E9, 0.0, 2024-02-26 18:52:53.785
176.0, 187500.0, 187500.0, 187500.0, 187500.0, 187500.0, 187500.0, 52192.99968397614, -186743.3263949545, 0.076, -0.012, 0.978, 192.0, 2.0, 96.0, 255.0, 160.0, 30.0, 144.0, 0.0, 0.0, 0.0, 1.708991573789968E9, 0.0, 2024-02-26 18:52:53.789
177.0, 187500.0, 187500.0, 187500.0, 187500.0, 187500.0, 187500.0, 52513.70251342088, -186749.58488340199, 0.076, -0.012, 0.978, 192.0, 0.0, 0.0, 0.0, 0.0, 0.0, 0.0, 0.0, 0.0, 0.0, 1.708991573793961E9, 0.0, 2024-02-26 18:52:53.793
178.0, 187500.0, 187500.0, 187500.0, 187500.0, 187500.0, 187500.0, 52659.704108202954, -186753.2282177482, 0.076, -0.012, 0.978, 192.0, 0.0, 0.0, 0.0, 0.0, 0.0, 0.0, 0.0, 0.0, 0.0, 1.708991573797981E9, 0.0, 2024-02-26 18:52:53.797
179.0, 187500.0, 187500.0, 187500.0, 187500.0, 187500.0, 187500.0, 52166.75873598561, -186747.95320605676, 0.076, -0.012, 0.978, 192.0, 0.0, 0.0, 0.0, 0.0, 0.0, 0.0, 0.0, 0.0, 0.0, 1.70899157380197E9, 0.0, 2024-02-26 18:52:53.801
180.0, 187500.0, 187500.0, 187500.0, 187500.0, 187500.0, 187500.0, 51959.60276837382, -186747.01443278964, 0.076, -0.012, 0.978, 192.0, 0.0, 0.0, 0.0, 0.0, 0.0, 0.0, 0.0, 0.0, 0.0, 1.708991573805973E9, 0.0, 2024-02-26 18:52:53.805
181.0, 187500.0, 187500.0, 187500.0, 187500.0, 187500.0, 187500.0, 52204.64494283735, -186753.54114217058, 0.076, -0.012, 0.978, 192.0, 0.0, 0.0, 0.0, 0.0, 0.0, 0.0, 0.0, 0.0, 0.0, 1.708991573810964E9, 0.0, 2024-02-26 18:52:53.810
182.0, 187500.0, 187500.0, 187500.0, 187500.0, 187500.0, 187500.0, 52489.473222431334, -186760.090203296, 0.076, -0.012, 0.978, 192.0, 0.0, 0.0, 0.0, 0.0, 0.0, 0.0, 0.0, 0.0, 0.0, 1.70899157381497E9, 0.0, 2024-02-26 18:52:53.814
183.0, 187500.0, 187500.0, 187500.0, 187500.0, 187500.0, 187500.0, 52020.69008597018, -186751.9318165698, 0.076, -0.012, 0.978, 192.0, 0.0, 0.0, 0.0, 0.0, 0.0, 0.0, 0.0, 0.0, 0.0, 1.708991573819013E9, 0.0, 2024-02-26 18:52:53.819
184.0, 187500.0, 187500.0, 187500.0, 187500.0, 187500.0, 187500.0, 51748.75876292691, -186747.327357212, 0.076, -0.012, 0.978, 192.0, 0.0, 0.0, 0.0, 0.0, 0.0, 0.0, 0.0, 0.0, 0.0, 1.708991573821995E9, 0.0, 2024-02-26 18:52:53.821
185.0, 187500.0, 187500.0, 187500.0, 187500.0, 187500.0, 187500.0, 51875.73902317751, -186752.91529332582, 0.07200000000000001, -0.012, 0.978, 192.0, 2.0, 64.0, 255.0, 160.0, 30.0, 144.0, 0.0, 0.0, 0.0, 1.708991573826013E9, 0.0, 2024-02-26 18:52:53.826
186.0, 187500.0, 187500.0, 187500.0, 187500.0, 187500.0, 187500.0, 52221.96754479022, -186760.11255504042, 0.07200000000000001, -0.012, 0.978, 192.0, 0.0, 0.0, 0.0, 0.0, 0.0, 0.0, 0.0, 0.0, 0.0, 1.708991573830023E9, 0.0, 2024-02-26 18:52:53.830
187.0, 187500.0, 187500.0, 187500.0, 187500.0, 187500.0, 187500.0, 51804.28049615389, -186755.10576428246, 0.07200000000000001, -0.012, 0.978, 192.0, 0.0, 0.0, 0.0, 0.0, 0.0, 0.0, 0.0, 0.0, 0.0, 1.708991573834022E9, 0.0, 2024-02-26 18:52:53.834
188.0, 187500.0, 187500.0, 187500.0, 187500.0, 187500.0, 187500.0, 51469.51841944676, -186748.73551711268, 0.07200000000000001, -0.012, 0.978, 192.0, 0.0, 0.0, 0.0, 0.0, 0.0, 0.0, 0.0, 0.0, 0.0, 1.708991573839004E9, 0.0, 2024-02-26 18:52:53.839
189.0, 187500.0, 187500.0, 187500.0, 187500.0, 187500.0, 187500.0, 51524.41430382899, -186753.76465961512, 0.07200000000000001, -0.012, 0.978, 192.0, 0.0, 0.0, 0.0, 0.0, 0.0, 0.0, 0.0, 0.0, 0.0, 1.708991573842017E9, 0.0, 2024-02-26 18:52:53.842
190.0, 187500.0, 187500.0, 187500.0, 187500.0, 187500.0, 187500.0, 51960.74270734104, -186764.44879346478, 0.07200000000000001, -0.012, 0.978, 192.0, 0.0, 0.0, 0.0, 0.0, 0.0, 0.0, 0.0, 0.0, 0.0, 1.708991573845024E9, 0.0, 2024-02-26 18:52:53.845
191.0, 187500.0, 187500.0, 187500.0, 187500.0, 187500.0, 187500.0, 51704.18938448303, -186760.24666550718, 0.07200000000000001, -0.012, 0.978, 192.0, 0.0, 0.0, 0.0, 0.0, 0.0, 0.0, 0.0, 0.0, 0.0, 1.708991573850017E9, 0.0, 2024-02-26 18:52:53.850
192.0, 187500.0, 187500.0, 187500.0, 187500.0, 187500.0, 187500.0, 51295.979475495755, -186752.3788514589, 0.07200000000000001, -0.012, 0.978, 192.0, 0.0, 0.0, 0.0, 0.0, 0.0, 0.0, 0.0, 0.0, 0.0, 1.708991573854027E9, 0.0, 2024-02-26 18:52:53.854
193.0, 187500.0, 187500.0, 187500.0, 187500.0, 187500.0, 187500.0, 51276.131126419445, -186754.0775840375, 0.07200000000000001, -0.012, 0.978, 192.0, 0.0, 0.0, 0.0, 0.0, 0.0, 0.0, 0.0, 0.0, 0.0, 1.708991573858042E9, 0.0, 2024-02-26 18:52:53.858
194.0, 187500.0, 187500.0, 187500.0, 187500.0, 187500.0, 187500.0, 51725.42354171557, -186765.6334359209, 0.07200000000000001, -0.012, 0.978, 192.0, 0.0, 0.0, 0.0, 0.0, 0.0, 0.0, 0.0, 0.0, 0.0, 1.708991573862055E9, 0.0, 2024-02-26 18:52:53.862
195.0, 187500.0, 187500.0, 187500.0, 187500.0, 187500.0, 187500.0, 51590.9777988169, -186766.9745405882, 0.064, -0.014, 0.978, 192.0, 2.0, 0.0, 255.0, 144.0, 30.0, 144.0, 0.0, 0.0, 0.0, 1.708991573867056E9, 0.0, 2024-02-26 18:52:53.867
196.0, 187500.0, 187500.0, 187500.0, 187500.0, 187500.0, 187500.0, 51141.93125270978, -186760.96192132973, 0.064, -0.014, 0.978, 192.0, 0.0, 0.0, 0.0, 0.0, 0.0, 0.0, 0.0, 0.0, 0.0, 1.708991573870056E9, 0.0, 2024-02-26 18:52:53.870
197.0, 187500.0, 187500.0, 187500.0, 187500.0, 187500.0, 187500.0, 51070.2045047527, -186761.7218806412, 0.064, -0.014, 0.978, 192.0, 0.0, 0.0, 0.0, 0.0, 0.0, 0.0, 0.0, 0.0, 0.0, 1.70899157387305E9, 0.0, 2024-02-26 18:52:53.873
198.0, 187500.0, 187500.0, 187500.0, 187500.0, 187500.0, 187500.0, 51468.49023920182, -186769.41088073383, 0.064, -0.014, 0.978, 192.0, 0.0, 0.0, 0.0, 0.0, 0.0, 0.0, 0.0, 0.0, 0.0, 1.708991573878036E9, 0.0, 2024-02-26 18:52:53.878
199.0, 187500.0, 187500.0, 187500.0, 187500.0, 187500.0, 187500.0, 51536.77481851278, -186770.59552319, 0.064, -0.014, 0.978, 192.0, 0.0, 0.0, 0.0, 0.0, 0.0, 0.0, 0.0, 0.0, 0.0, 1.70899157388203E9, 0.0, 2024-02-26 18:52:53.882
200.0, 187500.0, 187500.0, 187500.0, 187500.0, 187500.0, 187500.0, 51121.25588908862, -186761.8336393635, 0.064, -0.014, 0.978, 192.0, 0.0, 0.0, 0.0, 0.0, 0.0, 0.0, 0.0, 0.0, 0.0, 1.708991573886033E9, 0.0, 2024-02-26 18:52:53.886
201.0, 187500.0, 187500.0, 187500.0, 187500.0, 187500.0, 187500.0, 51040.47668462714, -186761.54306668558, 0.064, -0.014, 0.978, 192.0, 0.0, 0.0, 0.0, 0.0, 0.0, 0.0, 0.0, 0.0, 0.0, 1.708991573890034E9, 0.0, 2024-02-26 18:52:53.890
202.0, 187500.0, 187500.0, 187500.0, 187500.0, 187500.0, 187500.0, 51438.27068069824, -186767.42157547732, 0.064, -0.014, 0.978, 192.0, 0.0, 0.0, 0.0, 0.0, 0.0, 0.0, 0.0, 0.0, 0.0, 1.708991573894032E9, 0.0, 2024-02-26 18:52:53.894
203.0, 187500.0, 187500.0, 187500.0, 187500.0, 187500.0, 187500.0, 51700.36723618117, -186768.583866189, 0.064, -0.014, 0.978, 192.0, 0.0, 0.0, 0.0, 0.0, 0.0, 0.0, 0.0, 0.0, 0.0, 1.708991573898047E9, 0.0, 2024-02-26 18:52:53.898
204.0, 187500.0, 187500.0, 187500.0, 187500.0, 187500.0, 187500.0, 51289.47511785926, -186760.80545911856, 0.064, -0.014, 0.978, 192.0, 0.0, 0.0, 0.0, 0.0, 0.0, 0.0, 0.0, 0.0, 0.0, 1.708991573901101E9, 0.0, 2024-02-26 18:52:53.901
205.0, 187500.0, 187500.0, 187500.0, 187500.0, 187500.0, 187500.0, 51134.37636308389, -186757.5197526836, 0.064, -0.012, 0.98, 192.0, 2.0, 0.0, 255.0, 160.0, 30.0, 160.0, 0.0, 0.0, 0.0, 1.708991573906079E9, 0.0, 2024-02-26 18:52:53.906
206.0, 187500.0, 187500.0, 187500.0, 187500.0, 187500.0, 187500.0, 51410.643924551485, -186761.9230463413, 0.064, -0.012, 0.98, 192.0, 0.0, 0.0, 0.0, 0.0, 0.0, 0.0, 0.0, 0.0, 0.0, 1.708991573910084E9, 0.0, 2024-02-26 18:52:53.910
207.0, 187500.0, 187500.0, 187500.0, 187500.0, 187500.0, 187500.0, 51784.70036801104, -186765.81224987653, 0.064, -0.012, 0.98, 192.0, 0.0, 0.0, 0.0, 0.0, 0.0, 0.0, 0.0, 0.0, 0.0, 1.708991573914083E9, 0.0, 2024-02-26 18:52:53.914
208.0, 187500.0, 187500.0, 187500.0, 187500.0, 187500.0, 187500.0, 51417.08122695461, -186761.05132830757, 0.064, -0.012, 0.98, 192.0, 0.0, 0.0, 0.0, 0.0, 0.0, 0.0, 0.0, 0.0, 0.0, 1.708991573918126E9, 0.0, 2024-02-26 18:52:53.918
209.0, 187500.0, 187500.0, 187500.0, 187500.0, 187500.0, 187500.0, 51222.174015304336, -186757.20682826126, 0.064, -0.012, 0.98, 192.0, 0.0, 0.0, 0.0, 0.0, 0.0, 0.0, 0.0, 0.0, 0.0, 1.70899157392108E9, 0.0, 2024-02-26 18:52:53.921
210.0, 187500.0, 187500.0, 187500.0, 187500.0, 187500.0, 187500.0, 51432.74979981778, -186762.95122658627, 0.064, -0.012, 0.98, 192.0, 0.0, 0.0, 0.0, 0.0, 0.0, 0.0, 0.0, 0.0, 0.0, 1.70899157392508E9, 0.0, 2024-02-26 18:52:53.925
211.0, 187500.0, 187500.0, 187500.0, 187500.0, 187500.0, 187500.0, 51900.147128122706, -186771.7801656461, 0.064, -0.012, 0.98, 192.0, 0.0, 0.0, 0.0, 0.0, 0.0, 0.0, 0.0, 0.0, 0.0, 1.708991573929081E9, 0.0, 2024-02-26 18:52:53.929
212.0, 187500.0, 187500.0, 187500.0, 187500.0, 187500.0, 187500.0, 51609.01565659233, -186763.59942717548, 0.064, -0.012, 0.98, 192.0, 0.0, 0.0, 0.0, 0.0, 0.0, 0.0, 0.0, 0.0, 0.0, 1.708991573934077E9, 0.0, 2024-02-26 18:52:53.934
213.0, 187500.0, 187500.0, 187500.0, 187500.0, 187500.0, 187500.0, 51353.57992095708, -186756.9833108167, 0.064, -0.012, 0.98, 192.0, 0.0, 0.0, 0.0, 0.0, 0.0, 0.0, 0.0, 0.0, 0.0, 1.708991573938089E9, 0.0, 2024-02-26 18:52:53.938
214.0, 187500.0, 187500.0, 187500.0, 187500.0, 187500.0, 187500.0, 51476.80508813919, -186760.60429341847, 0.064, -0.012, 0.98, 192.0, 0.0, 0.0, 0.0, 0.0, 0.0, 0.0, 0.0, 0.0, 0.0, 1.708991573942131E9, 0.0, 2024-02-26 18:52:53.942
215.0, 187500.0, 187500.0, 187500.0, 187500.0, 187500.0, 187500.0, 51964.20722773162, -186767.01924407712, 0.064, -0.012, 0.982, 192.0, 2.0, 0.0, 255.0, 160.0, 30.0, 176.0, 0.0, 0.0, 0.0, 1.708991573946118E9, 0.0, 2024-02-26 18:52:53.946
216.0, 187500.0, 187500.0, 187500.0, 187500.0, 187500.0, 187500.0, 51810.091949712274, -186760.76075562966, 0.064, -0.012, 0.982, 192.0, 0.0, 0.0, 0.0, 0.0, 0.0, 0.0, 0.0, 0.0, 0.0, 1.708991573949111E9, 0.0, 2024-02-26 18:52:53.949
217.0, 187500.0, 187500.0, 187500.0, 187500.0, 187500.0, 187500.0, 51503.135443107545, -186752.60236890346, 0.064, -0.012, 0.982, 192.0, 0.0, 0.0, 0.0, 0.0, 0.0, 0.0, 0.0, 0.0, 0.0, 1.708991573953112E9, 0.0, 2024-02-26 18:52:53.953
218.0, 187500.0, 187500.0, 187500.0, 187500.0, 187500.0, 187500.0, 51551.68343206447, -186753.8764183374, 0.064, -0.012, 0.982, 192.0, 0.0, 0.0, 0.0, 0.0, 0.0, 0.0, 0.0, 0.0, 0.0, 1.708991573957111E9, 0.0, 2024-02-26 18:52:53.957
219.0, 187500.0, 187500.0, 187500.0, 187500.0, 187500.0, 187500.0, 52079.11754597635, -186761.56541843002, 0.064, -0.012, 0.982, 192.0, 0.0, 0.0, 0.0, 0.0, 0.0, 0.0, 0.0, 0.0, 0.0, 1.70899157396214E9, 0.0, 2024-02-26 18:52:53.962
220.0, 187500.0, 187500.0, 187500.0, 187500.0, 187500.0, 187500.0, 52098.675322374744, -186761.69952889677, 0.064, -0.012, 0.982, 192.0, 0.0, 0.0, 0.0, 0.0, 0.0, 0.0, 0.0, 0.0, 0.0, 1.708991573966124E9, 0.0, 2024-02-26 18:52:53.966
221.0, 187500.0, 187500.0, 187500.0, 187500.0, 187500.0, 187500.0, 51747.730582681965, -186754.50226718216, 0.064, -0.012, 0.982, 192.0, 0.0, 0.0, 0.0, 0.0, 0.0, 0.0, 0.0, 0.0, 0.0, 1.708991573970134E9, 0.0, 2024-02-26 18:52:53.970
222.0, 187500.0, 187500.0, 187500.0, 187500.0, 187500.0, 187500.0, 51727.256384760905, -186752.580017159, 0.064, -0.012, 0.982, 192.0, 0.0, 0.0, 0.0, 0.0, 0.0, 0.0, 0.0, 0.0, 0.0, 1.708991573975172E9, 0.0, 2024-02-26 18:52:53.975
223.0, 187500.0, 187500.0, 187500.0, 187500.0, 187500.0, 187500.0, 52156.432230047256, -186759.35259572897, 0.064, -0.012, 0.982, 192.0, 0.0, 0.0, 0.0, 0.0, 0.0, 0.0, 0.0, 0.0, 0.0, 1.708991573979183E9, 0.0, 2024-02-26 18:52:53.979
224.0, 187500.0, 187500.0, 187500.0, 187500.0, 187500.0, 187500.0, 52259.67493768632, -186759.3749474734, 0.064, -0.012, 0.982, 192.0, 0.0, 0.0, 0.0, 0.0, 0.0, 0.0, 0.0, 0.0, 0.0, 1.708991573982184E9, 0.0, 2024-02-26 18:52:53.982
225.0, 187500.0, 187500.0, 187500.0, 187500.0, 187500.0, 187500.0, 51819.189109705585, -186748.95903455725, 0.066, -0.012, 0.978, 192.0, 2.0, 16.0, 255.0, 160.0, 30.0, 144.0, 0.0, 0.0, 0.0, 1.708991573985173E9, 0.0, 2024-02-26 18:52:53.985
226.0, 187500.0, 187500.0, 187500.0, 187500.0, 187500.0, 187500.0, 51670.72882303344, -186746.65680487835, 0.066, -0.012, 0.978, 192.0, 0.0, 0.0, 0.0, 0.0, 0.0, 0.0, 0.0, 0.0, 0.0, 1.708991573990193E9, 0.0, 2024-02-26 18:52:53.990
227.0, 187500.0, 187500.0, 187500.0, 187500.0, 187500.0, 187500.0, 51974.39962320324, -186751.7753543586, 0.066, -0.012, 0.978, 192.0, 0.0, 0.0, 0.0, 0.0, 0.0, 0.0, 0.0, 0.0, 0.0, 1.708991573994165E9, 0.0, 2024-02-26 18:52:53.994
228.0, 187500.0, 187500.0, 187500.0, 187500.0, 187500.0, 187500.0, 52190.16101243032, -186755.26222649365, 0.066, -0.012, 0.978, 192.0, 0.0, 0.0, 0.0, 0.0, 0.0, 0.0, 0.0, 0.0, 0.0, 1.708991573998172E9, 0.0, 2024-02-26 18:52:53.998
229.0, 187500.0, 187500.0, 187500.0, 187500.0, 187500.0, 187500.0, 51729.13393129515, -186749.89780782437, 0.066, -0.012, 0.978, 192.0, 0.0, 0.0, 0.0, 0.0, 0.0, 0.0, 0.0, 0.0, 0.0, 1.708991574002175E9, 0.0, 2024-02-26 18:52:54.002
230.0, 187500.0, 187500.0, 187500.0, 187500.0, 187500.0, 187500.0, 51500.0061988838, -186749.11549676844, 0.066, -0.012, 0.978, 192.0, 0.0, 0.0, 0.0, 0.0, 0.0, 0.0, 0.0, 0.0, 0.0, 1.708991574005187E9, 0.0, 2024-02-26 18:52:54.005
231.0, 187500.0, 187500.0, 187500.0, 187500.0, 187500.0, 187500.0, 51712.19130899803, -186752.9823485592, 0.066, -0.012, 0.978, 192.0, 0.0, 0.0, 0.0, 0.0, 0.0, 0.0, 0.0, 0.0, 0.0, 1.70899157400919E9, 0.0, 2024-02-26 18:52:54.009
232.0, 187500.0, 187500.0, 187500.0, 187500.0, 187500.0, 187500.0, 52042.885368214294, -186761.54306668558, 0.066, -0.012, 0.978, 192.0, 0.0, 0.0, 0.0, 0.0, 0.0, 0.0, 0.0, 0.0, 0.0, 1.708991574013236E9, 0.0, 2024-02-26 18:52:54.013
233.0, 187500.0, 187500.0, 187500.0, 187500.0, 187500.0, 187500.0, 51590.30724648324, -186758.79380211758, 0.066, -0.012, 0.978, 192.0, 0.0, 0.0, 0.0, 0.0, 0.0, 0.0, 0.0, 0.0, 0.0, 1.708991574017214E9, 0.0, 2024-02-26 18:52:54.017
234.0, 187500.0, 187500.0, 187500.0, 187500.0, 187500.0, 187500.0, 51240.122466101944, -186754.61402590442, 0.066, -0.012, 0.978, 192.0, 0.0, 0.0, 0.0, 0.0, 0.0, 0.0, 0.0, 0.0, 0.0, 1.70899157402223E9, 0.0, 2024-02-26 18:52:54.022
235.0, 187500.0, 187500.0, 187500.0, 187500.0, 187500.0, 187500.0, 51263.703556502296, -186758.6820433953, 0.07, -0.01, 0.984, 192.0, 2.0, 48.0, 255.0, 176.0, 30.0, 192.0, 0.0, 0.0, 0.0, 1.708991574026214E9, 0.0, 2024-02-26 18:52:54.026
236.0, 187500.0, 187500.0, 187500.0, 187500.0, 187500.0, 187500.0, 51566.50263863834, -186768.56151444453, 0.07, -0.01, 0.984, 192.0, 0.0, 0.0, 0.0, 0.0, 0.0, 0.0, 0.0, 0.0, 0.0, 1.708991574032221E9, 0.0, 2024-02-26 18:52:54.032
237.0, 187500.0, 187500.0, 187500.0, 187500.0, 187500.0, 187500.0, 51100.20054581172, -186762.5712469305, 0.07, -0.01, 0.984, 192.0, 0.0, 0.0, 0.0, 0.0, 0.0, 0.0, 0.0, 0.0, 0.0, 1.708991574035208E9, 0.0, 2024-02-26 18:52:54.035
238.0, 187500.0, 187500.0, 187500.0, 187500.0, 187500.0, 187500.0, 50603.92476367054, -186760.00079631817, 0.07, -0.01, 0.984, 192.0, 0.0, 0.0, 0.0, 0.0, 0.0, 0.0, 0.0, 0.0, 0.0, 1.708991574038231E9, 0.0, 2024-02-26 18:52:54.038
239.0, 187500.0, 187500.0, 187500.0, 187500.0, 187500.0, 187500.0, 50479.67141624349, -186764.8734766094, 0.07, -0.01, 0.984, 192.0, 0.0, 0.0, 0.0, 0.0, 0.0, 0.0, 0.0, 0.0, 0.0, 1.708991574041219E9, 0.0, 2024-02-26 18:52:54.041
240.0, 187500.0, 187500.0, 187500.0, 187500.0, 187500.0, 187500.0, 50779.11773671123, -186775.62466569242, 0.07, -0.01, 0.984, 192.0, 0.0, 0.0, 0.0, 0.0, 0.0, 0.0, 0.0, 0.0, 0.0, 1.708991574045242E9, 0.0, 2024-02-26 18:52:54.045
241.0, 187500.0, 187500.0, 187500.0, 187500.0, 187500.0, 187500.0, 50438.41009597899, -186771.26607552363, 0.07, -0.01, 0.984, 192.0, 0.0, 0.0, 0.0, 0.0, 0.0, 0.0, 0.0, 0.0, 0.0, 1.708991574050223E9, 0.0, 2024-02-26 18:52:54.050
242.0, 187500.0, 187500.0, 187500.0, 187500.0, 187500.0, 187500.0, 49902.39291219627, -186767.39922373288, 0.07, -0.01, 0.984, 192.0, 0.0, 0.0, 0.0, 0.0, 0.0, 0.0, 0.0, 0.0, 0.0, 1.708991574054218E9, 0.0, 2024-02-26 18:52:54.054
243.0, 187500.0, 187500.0, 187500.0, 187500.0, 187500.0, 187500.0, 49695.43811028458, -186770.90844761234, 0.07, -0.01, 0.984, 192.0, 0.0, 0.0, 0.0, 0.0, 0.0, 0.0, 0.0, 0.0, 0.0, 1.708991574057219E9, 0.0, 2024-02-26 18:52:54.057
244.0, 187500.0, 187500.0, 187500.0, 187500.0, 187500.0, 187500.0, 49981.071052678955, -186778.7315581717, 0.07, -0.01, 0.984, 192.0, 0.0, 0.0, 0.0, 0.0, 0.0, 0.0, 0.0, 0.0, 0.0, 1.708991574061222E9, 0.0, 2024-02-26 18:52:54.061
245.0, 187500.0, 187500.0, 187500.0, 187500.0, 187500.0, 187500.0, 49780.844125848314, -186778.01630234913, 0.07, -0.008, 0.986, 192.0, 2.0, 48.0, 255.0, 192.0, 30.0, 208.0, 0.0, 0.0, 0.0, 1.708991574065224E9, 0.0, 2024-02-26 18:52:54.065
246.0, 187500.0, 187500.0, 187500.0, 187500.0, 187500.0, 187500.0, 49206.98543870276, -186770.75198540118, 0.07, -0.008, 0.986, 192.0, 0.0, 0.0, 0.0, 0.0, 0.0, 0.0, 0.0, 0.0, 0.0, 1.708991574069262E9, 0.0, 2024-02-26 18:52:54.069
247.0, 187500.0, 187500.0, 187500.0, 187500.0, 187500.0, 187500.0, 48964.379604384856, -186771.55664820154, 0.07, -0.008, 0.986, 192.0, 0.0, 0.0, 0.0, 0.0, 0.0, 0.0, 0.0, 0.0, 0.0, 1.708991574073277E9, 0.0, 2024-02-26 18:52:54.073
248.0, 187500.0, 187500.0, 187500.0, 187500.0, 187500.0, 187500.0, 49199.49760431023, -186779.82679365002, 0.07, -0.008, 0.986, 192.0, 0.0, 0.0, 0.0, 0.0, 0.0, 0.0, 0.0, 0.0, 0.0, 1.708991574078275E9, 0.0, 2024-02-26 18:52:54.078
249.0, 187500.0, 187500.0, 187500.0, 187500.0, 187500.0, 187500.0, 49178.285798822144, -186782.66546519584, 0.07, -0.008, 0.986, 192.0, 0.0, 0.0, 0.0, 0.0, 0.0, 0.0, 0.0, 0.0, 0.0, 1.708991574082285E9, 0.0, 2024-02-26 18:52:54.082
250.0, 187500.0, 187500.0, 187500.0, 187500.0, 187500.0, 187500.0, 48591.99954175944, -186775.06587208103, 0.07, -0.008, 0.986, 192.0, 0.0, 0.0, 0.0, 0.0, 0.0, 0.0, 0.0, 0.0, 0.0, 1.708991574085273E9, 0.0, 2024-02-26 18:52:54.085
251.0, 187500.0, 187500.0, 187500.0, 187500.0, 187500.0, 187500.0, 48320.96228849439, -186774.7976511476, 0.07, -0.008, 0.986, 192.0, 0.0, 0.0, 0.0, 0.0, 0.0, 0.0, 0.0, 0.0, 0.0, 1.708991574089273E9, 0.0, 2024-02-26 18:52:54.089
252.0, 187500.0, 187500.0, 187500.0, 187500.0, 187500.0, 187500.0, 48507.375837251646, -186785.12415708593, 0.07, -0.008, 0.986, 192.0, 0.0, 0.0, 0.0, 0.0, 0.0, 0.0, 0.0, 0.0, 0.0, 1.70899157409328E9, 0.0, 2024-02-26 18:52:54.093
253.0, 187500.0, 187500.0, 187500.0, 187500.0, 187500.0, 187500.0, 48607.80222508934, -186788.20869782075, 0.07, -0.008, 0.986, 192.0, 0.0, 0.0, 0.0, 0.0, 0.0, 0.0, 0.0, 0.0, 0.0, 1.708991574097275E9, 0.0, 2024-02-26 18:52:54.097
254.0, 187500.0, 187500.0, 187500.0, 187500.0, 187500.0, 187500.0, 48025.069895395034, -186779.60327620545, 0.07, -0.008, 0.986, 192.0, 0.0, 0.0, 0.0, 0.0, 0.0, 0.0, 0.0, 0.0, 0.0, 1.708991574101285E9, 0.0, 2024-02-26 18:52:54.101
255.0, 187500.0, 187500.0, 187500.0, 187500.0, 187500.0, 187500.0, 47676.27092316996, -186779.8491453945, 0.07200000000000001, -0.01, 0.984, 192.0, 2.0, 64.0, 255.0, 176.0, 30.0, 192.0, 0.0, 0.0, 0.0, 1.708991574106278E9, 0.0, 2024-02-26 18:52:54.106
0.0, 187500.0, 187500.0, 187500.0, 187500.0, 187500.0, 187500.0, 47780.2288866316, -186785.70530244175, 0.07200000000000001, -0.01, 0.984, 192.0, 0.0, 0.0, 0.0, 0.0, 0.0, 0.0, 0.0, 0.0, 0.0, 1.708991574110276E9, 0.0, 2024-02-26 18:52:54.110
1.0, 187500.0, 187500.0, 187500.0, 187500.0, 187500.0, 187500.0, 48045.92407297183, -186789.6392094659, 0.07200000000000001, -0.01, 0.984, 192.0, 0.0, 0.0, 0.0, 0.0, 0.0, 0.0, 0.0, 0.0, 0.0, 1.708991574113315E9, 0.0, 2024-02-26 18:52:54.113
2.0, 187500.0, 187500.0, 187500.0, 187500.0, 187500.0, 187500.0, 47564.55690438234, -186781.9502093733, 0.07200000000000001, -0.01, 0.984, 192.0, 0.0, 0.0, 0.0, 0.0, 0.0, 0.0, 0.0, 0.0, 0.0, 1.708991574117315E9, 0.0, 2024-02-26 18:52:54.117
3.0, 187500.0, 187500.0, 187500.0, 187500.0, 187500.0, 187500.0, 47205.09615005209, -186779.55857271655, 0.07200000000000001, -0.01, 0.984, 192.0, 0.0, 0.0, 0.0, 0.0, 0.0, 0.0, 0.0, 0.0, 0.0, 1.708991574121316E9, 0.0, 2024-02-26 18:52:54.121
4.0, 187500.0, 187500.0, 187500.0, 187500.0, 187500.0, 187500.0, 47240.07663012465, -186786.21939256424, 0.07200000000000001, -0.01, 0.984, 192.0, 0.0, 0.0, 0.0, 0.0, 0.0, 0.0, 0.0, 0.0, 0.0, 1.708991574125319E9, 0.0, 2024-02-26 18:52:54.125
5.0, 187500.0, 187500.0, 187500.0, 187500.0, 187500.0, 187500.0, 47638.89880644069, -186795.67418046884, 0.07200000000000001, -0.01, 0.984, 192.0, 0.0, 0.0, 0.0, 0.0, 0.0, 0.0, 0.0, 0.0, 0.0, 1.708991574129319E9, 0.0, 2024-02-26 18:52:54.129
6.0, 187500.0, 187500.0, 187500.0, 187500.0, 187500.0, 187500.0, 47323.672154387496, -186789.840375166, 0.07200000000000001, -0.01, 0.984, 192.0, 0.0, 0.0, 0.0, 0.0, 0.0, 0.0, 0.0, 0.0, 0.0, 1.708991574134322E9, 0.0, 2024-02-26 18:52:54.134
7.0, 187500.0, 187500.0, 187500.0, 187500.0, 187500.0, 187500.0, 47035.6028718475, -186783.80540416305, 0.07200000000000001, -0.01, 0.984, 192.0, 0.0, 0.0, 0.0, 0.0, 0.0, 0.0, 0.0, 0.0, 0.0, 1.708991574140308E9, 0.0, 2024-02-26 18:52:54.140
8.0, 187500.0, 187500.0, 187500.0, 187500.0, 187500.0, 187500.0, 47185.180745742415, -186785.50413674166, 0.07200000000000001, -0.01, 0.984, 192.0, 0.0, 0.0, 0.0, 0.0, 0.0, 0.0, 0.0, 0.0, 0.0, 1.708991574143343E9, 0.0, 2024-02-26 18:52:54.143
9.0, 187500.0, 187500.0, 187500.0, 187500.0, 187500.0, 187500.0, 47798.55731708495, -186794.0425031236, 0.064, -0.008, 0.982, 192.0, 2.0, 0.0, 255.0, 192.0, 30.0, 176.0, 0.0, 0.0, 0.0, 1.708991574147349E9, 0.0, 2024-02-26 18:52:54.147
10.0, 187500.0, 187500.0, 187500.0, 187500.0, 187500.0, 187500.0, 47775.95970344063, -186790.86855541094, 0.064, -0.008, 0.982, 192.0, 0.0, 0.0, 0.0, 0.0, 0.0, 0.0, 0.0, 0.0, 0.0, 1.708991574150327E9, 0.0, 2024-02-26 18:52:54.150
11.0, 187500.0, 187500.0, 187500.0, 187500.0, 187500.0, 187500.0, 47493.79128143684, -186782.15137507336, 0.064, -0.008, 0.982, 192.0, 0.0, 0.0, 0.0, 0.0, 0.0, 0.0, 0.0, 0.0, 0.0, 1.708991574153305E9, 0.0, 2024-02-26 18:52:54.153
12.0, 187500.0, 187500.0, 187500.0, 187500.0, 187500.0, 187500.0, 47568.26729396192, -186779.91620062783, 0.064, -0.008, 0.982, 192.0, 0.0, 0.0, 0.0, 0.0, 0.0, 0.0, 0.0, 0.0, 0.0, 1.708991574157355E9, 0.0, 2024-02-26 18:52:54.157
13.0, 187500.0, 187500.0, 187500.0, 187500.0, 187500.0, 187500.0, 48118.6566494294, -186782.8889826404, 0.064, -0.008, 0.982, 192.0, 0.0, 0.0, 0.0, 0.0, 0.0, 0.0, 0.0, 0.0, 0.0, 1.708991574161368E9, 0.0, 2024-02-26 18:52:54.161
14.0, 187500.0, 187500.0, 187500.0, 187500.0, 187500.0, 187500.0, 48257.438630752404, -186779.4915174832, 0.064, -0.008, 0.982, 192.0, 0.0, 0.0, 0.0, 0.0, 0.0, 0.0, 0.0, 0.0, 0.0, 1.708991574165358E9, 0.0, 2024-02-26 18:52:54.165
15.0, 187500.0, 187500.0, 187500.0, 187500.0, 187500.0, 187500.0, 47986.93781935428, -186770.59552319, 0.064, -0.008, 0.982, 192.0, 0.0, 0.0, 0.0, 0.0, 0.0, 0.0, 0.0, 0.0, 0.0, 1.70899157416936E9, 0.0, 2024-02-26 18:52:54.169
16.0, 187500.0, 187500.0, 187500.0, 187500.0, 187500.0, 187500.0, 48065.615959836956, -186767.8909621109, 0.064, -0.008, 0.982, 192.0, 0.0, 0.0, 0.0, 0.0, 0.0, 0.0, 0.0, 0.0, 0.0, 1.708991574173355E9, 0.0, 2024-02-26 18:52:54.173
17.0, 187500.0, 187500.0, 187500.0, 187500.0, 187500.0, 187500.0, 48633.7302486575, -186773.94828485828, 0.064, -0.008, 0.982, 192.0, 0.0, 0.0, 0.0, 0.0, 0.0, 0.0, 0.0, 0.0, 0.0, 1.708991574178358E9, 0.0, 2024-02-26 18:52:54.178
18.0, 187500.0, 187500.0, 187500.0, 187500.0, 187500.0, 187500.0, 48976.65071209082, -186773.6800639248, 0.066, -0.016, 0.982, 192.0, 2.0, 16.0, 255.0, 128.0, 30.0, 176.0, 0.0, 0.0, 0.0, 1.708991574181359E9, 0.0, 2024-02-26 18:52:54.181
19.0, 187500.0, 187500.0, 187500.0, 187500.0, 187500.0, 187500.0, 48705.3452378923, -186764.24762776468, 0.066, -0.016, 0.982, 192.0, 0.0, 0.0, 0.0, 0.0, 0.0, 0.0, 0.0, 0.0, 0.0, 1.708991574185348E9, 0.0, 2024-02-26 18:52:54.185
20.0, 187500.0, 187500.0, 187500.0, 187500.0, 187500.0, 187500.0, 48708.94386874961, -186765.0746423095, 0.066, -0.016, 0.982, 192.0, 0.0, 0.0, 0.0, 0.0, 0.0, 0.0, 0.0, 0.0, 0.0, 1.708991574189369E9, 0.0, 2024-02-26 18:52:54.189
21.0, 187500.0, 187500.0, 187500.0, 187500.0, 187500.0, 187500.0, 49135.70572563478, -186769.85791562294, 0.066, -0.016, 0.982, 192.0, 0.0, 0.0, 0.0, 0.0, 0.0, 0.0, 0.0, 0.0, 0.0, 1.708991574193391E9, 0.0, 2024-02-26 18:52:54.193
22.0, 187500.0, 187500.0, 187500.0, 187500.0, 187500.0, 187500.0, 49539.35587875317, -186771.10961331244, 0.066, -0.016, 0.982, 192.0, 0.0, 0.0, 0.0, 0.0, 0.0, 0.0, 0.0, 0.0, 0.0, 1.708991574197394E9, 0.0, 2024-02-26 18:52:54.197
23.0, 187500.0, 187500.0, 187500.0, 187500.0, 187500.0, 187500.0, 49214.920307984394, -186764.40408997587, 0.066, -0.016, 0.982, 192.0, 0.0, 0.0, 0.0, 0.0, 0.0, 0.0, 0.0, 0.0, 0.0, 1.708991574201393E9, 0.0, 2024-02-26 18:52:54.201
24.0, 187500.0, 187500.0, 187500.0, 187500.0, 187500.0, 187500.0, 49076.495954572674, -186763.1300405419, 0.066, -0.016, 0.982, 192.0, 0.0, 0.0, 0.0, 0.0, 0.0, 0.0, 0.0, 0.0, 0.0, 1.708991574206421E9, 0.0, 2024-02-26 18:52:54.206
25.0, 187500.0, 187500.0, 187500.0, 187500.0, 187500.0, 187500.0, 49306.85303292907, -186766.66161616583, 0.066, -0.016, 0.982, 192.0, 0.0, 0.0, 0.0, 0.0, 0.0, 0.0, 0.0, 0.0, 0.0, 1.708991574209398E9, 0.0, 2024-02-26 18:52:54.209
26.0, 187500.0, 187500.0, 187500.0, 187500.0, 187500.0, 187500.0, 49748.00941324347, -186772.3389592575, 0.066, -0.016, 0.982, 192.0, 0.0, 0.0, 0.0, 0.0, 0.0, 0.0, 0.0, 0.0, 0.0, 1.708991574212419E9, 0.0, 2024-02-26 18:52:54.212
27.0, 187500.0, 187500.0, 187500.0, 187500.0, 187500.0, 187500.0, 49413.62731619207, -186766.4828022102, 0.066, -0.016, 0.982, 192.0, 0.0, 0.0, 0.0, 0.0, 0.0, 0.0, 0.0, 0.0, 0.0, 1.708991574217404E9, 0.0, 2024-02-26 18:52:54.217
28.0, 187500.0, 187500.0, 187500.0, 187500.0, 187500.0, 187500.0, 49143.05944956058, -186761.8783428524, 0.07, -0.014, 0.982, 192.0, 2.0, 48.0, 255.0, 144.0, 30.0, 176.0, 0.0, 0.0, 0.0, 1.708991574221402E9, 0.0, 2024-02-26 18:52:54.221
29.0, 187500.0, 187500.0, 187500.0, 187500.0, 187500.0, 187500.0, 49238.16612221791, -186762.25832250816, 0.07, -0.014, 0.982, 192.0, 0.0, 0.0, 0.0, 0.0, 0.0, 0.0, 0.0, 0.0, 0.0, 1.708991574225393E9, 0.0, 2024-02-26 18:52:54.225
30.0, 187500.0, 187500.0, 187500.0, 187500.0, 187500.0, 187500.0, 49701.87541268771, -186770.5284679566, 0.07, -0.014, 0.982, 192.0, 0.0, 0.0, 0.0, 0.0, 0.0, 0.0, 0.0, 0.0, 0.0, 1.708991574229397E9, 0.0, 2024-02-26 18:52:54.229
31.0, 187500.0, 187500.0, 187500.0, 187500.0, 187500.0, 187500.0, 49451.8711509551, -186764.7840696316, 0.07, -0.014, 0.982, 192.0, 0.0, 0.0, 0.0, 0.0, 0.0, 0.0, 0.0, 0.0, 0.0, 1.708991574234394E9, 0.0, 2024-02-26 18:52:54.234
32.0, 187500.0, 187500.0, 187500.0, 187500.0, 187500.0, 187500.0, 49153.96710085477, -186758.45852595076, 0.07, -0.014, 0.982, 192.0, 0.0, 0.0, 0.0, 0.0, 0.0, 0.0, 0.0, 0.0, 0.0, 1.708991574237394E9, 0.0, 2024-02-26 18:52:54.237
33.0, 187500.0, 187500.0, 187500.0, 187500.0, 187500.0, 187500.0, 49221.17879643188, -186761.5877701745, 0.07, -0.014, 0.982, 192.0, 0.0, 0.0, 0.0, 0.0, 0.0, 0.0, 0.0, 0.0, 0.0, 1.708991574240436E9, 0.0, 2024-02-26 18:52:54.240
34.0, 187500.0, 187500.0, 187500.0, 187500.0, 187500.0, 187500.0, 49721.38848559719, -186770.8860958679, 0.07, -0.014, 0.982, 192.0, 0.0, 0.0, 0.0, 0.0, 0.0, 0.0, 0.0, 0.0, 0.0, 1.708991574245452E9, 0.0, 2024-02-26 18:52:54.245
35.0, 187500.0, 187500.0, 187500.0, 187500.0, 187500.0, 187500.0, 49640.89985381364, -186768.5391627001, 0.07, -0.014, 0.982, 192.0, 0.0, 0.0, 0.0, 0.0, 0.0, 0.0, 0.0, 0.0, 0.0, 1.70899157424945E9, 0.0, 2024-02-26 18:52:54.249
36.0, 187500.0, 187500.0, 187500.0, 187500.0, 187500.0, 187500.0, 49277.88517211499, -186761.81128761903, 0.07, -0.014, 0.982, 192.0, 0.0, 0.0, 0.0, 0.0, 0.0, 0.0, 0.0, 0.0, 0.0, 1.708991574253448E9, 0.0, 2024-02-26 18:52:54.253
37.0, 187500.0, 187500.0, 187500.0, 187500.0, 187500.0, 187500.0, 49261.79191610717, -186762.14656378588, 0.07, -0.014, 0.982, 192.0, 0.0, 0.0, 0.0, 0.0, 0.0, 0.0, 0.0, 0.0, 0.0, 1.708991574257438E9, 0.0, 2024-02-26 18:52:54.257
38.0, 187500.0, 187500.0, 187500.0, 187500.0, 187500.0, 187500.0, 49727.445808344586, -186771.087261568, 0.064, -0.012, 0.982, 192.0, 2.0, 0.0, 255.0, 160.0, 30.0, 176.0, 0.0, 0.0, 0.0, 1.708991574261436E9, 0.0, 2024-02-26 18:52:54.261
39.0, 187500.0, 187500.0, 187500.0, 187500.0, 187500.0, 187500.0, 49780.486497937025, -186771.6907586683, 0.064, -0.012, 0.982, 192.0, 0.0, 0.0, 0.0, 0.0, 0.0, 0.0, 0.0, 0.0, 0.0, 1.70899157426544E9, 0.0, 2024-02-26 18:52:54.265
40.0, 187500.0, 187500.0, 187500.0, 187500.0, 187500.0, 187500.0, 49334.613899542564, -186766.08047081, 0.064, -0.012, 0.982, 192.0, 0.0, 0.0, 0.0, 0.0, 0.0, 0.0, 0.0, 0.0, 0.0, 1.70899157426844E9, 0.0, 2024-02-26 18:52:54.268
41.0, 187500.0, 187500.0, 187500.0, 187500.0, 187500.0, 187500.0, 49197.28478160915, -186765.96871208772, 0.064, -0.012, 0.982, 192.0, 0.0, 0.0, 0.0, 0.0, 0.0, 0.0, 0.0, 0.0, 0.0, 1.708991574273433E9, 0.0, 2024-02-26 18:52:54.273
42.0, 187500.0, 187500.0, 187500.0, 187500.0, 187500.0, 187500.0, 49518.63581164311, -186776.1834593038, 0.064, -0.012, 0.982, 192.0, 0.0, 0.0, 0.0, 0.0, 0.0, 0.0, 0.0, 0.0, 0.0, 1.708991574277449E9, 0.0, 2024-02-26 18:52:54.277
43.0, 187500.0, 187500.0, 187500.0, 187500.0, 187500.0, 187500.0, 49678.20491530954, -186779.9832558612, 0.064, -0.012, 0.982, 192.0, 0.0, 0.0, 0.0, 0.0, 0.0, 0.0, 0.0, 0.0, 0.0, 1.708991574281434E9, 0.0, 2024-02-26 18:52:54.281
44.0, 187500.0, 187500.0, 187500.0, 187500.0, 187500.0, 187500.0, 49195.47429030827, -186770.59552319, 0.064, -0.012, 0.982, 192.0, 0.0, 0.0, 0.0, 0.0, 0.0, 0.0, 0.0, 0.0, 0.0, 1.708991574285458E9, 0.0, 2024-02-26 18:52:54.285
45.0, 187500.0, 187500.0, 187500.0, 187500.0, 187500.0, 187500.0, 48998.68953212375, -186767.15335454387, 0.064, -0.012, 0.982, 192.0, 0.0, 0.0, 0.0, 0.0, 0.0, 0.0, 0.0, 0.0, 0.0, 1.708991574288453E9, 0.0, 2024-02-26 18:52:54.288
46.0, 187500.0, 187500.0, 187500.0, 187500.0, 187500.0, 187500.0, 49240.870683297006, -186772.04838657958, 0.064, -0.012, 0.982, 192.0, 0.0, 0.0, 0.0, 0.0, 0.0, 0.0, 0.0, 0.0, 0.0, 1.708991574292499E9, 0.0, 2024-02-26 18:52:54.292
47.0, 187500.0, 187500.0, 187500.0, 187500.0, 187500.0, 187500.0, 49527.57650942523, -186778.50804072715, 0.064, -0.012, 0.982, 192.0, 0.0, 0.0, 0.0, 0.0, 0.0, 0.0, 0.0, 0.0, 0.0, 1.70899157429748E9, 0.0, 2024-02-26 18:52:54.297
48.0, 187500.0, 187500.0, 187500.0, 187500.0, 187500.0, 187500.0, 49067.08587015699, -186771.5342964571, 0.064, -0.014, 0.984, 192.0, 2.0, 0.0, 255.0, 144.0, 30.0, 192.0, 0.0, 0.0, 0.0, 1.708991574301507E9, 0.0, 2024-02-26 18:52:54.301
49.0, 187500.0, 187500.0, 187500.0, 187500.0, 187500.0, 187500.0, 48806.442178063655, -186769.1426598004, 0.064, -0.014, 0.984, 192.0, 0.0, 0.0, 0.0, 0.0, 0.0, 0.0, 0.0, 0.0, 0.0, 1.708991574305497E9, 0.0, 2024-02-26 18:52:54.305
50.0, 187500.0, 187500.0, 187500.0, 187500.0, 187500.0, 187500.0, 48953.76252576859, -186773.6800639248, 0.064, -0.014, 0.984, 192.0, 0.0, 0.0, 0.0, 0.0, 0.0, 0.0, 0.0, 0.0, 0.0, 1.708991574308485E9, 0.0, 2024-02-26 18:52:54.308
51.0, 187500.0, 187500.0, 187500.0, 187500.0, 187500.0, 187500.0, 49363.201780700896, -186780.8326221505, 0.064, -0.014, 0.984, 192.0, 0.0, 0.0, 0.0, 0.0, 0.0, 0.0, 0.0, 0.0, 0.0, 1.708991574313488E9, 0.0, 2024-02-26 18:52:54.313
52.0, 187500.0, 187500.0, 187500.0, 187500.0, 187500.0, 187500.0, 49023.49996846914, -186773.85887788044, 0.064, -0.014, 0.984, 192.0, 0.0, 0.0, 0.0, 0.0, 0.0, 0.0, 0.0, 0.0, 0.0, 1.708991574317483E9, 0.0, 2024-02-26 18:52:54.317
53.0, 187500.0, 187500.0, 187500.0, 187500.0, 187500.0, 187500.0, 48735.83301732934, -186769.9920260897, 0.064, -0.014, 0.984, 192.0, 0.0, 0.0, 0.0, 0.0, 0.0, 0.0, 0.0, 0.0, 0.0, 1.708991574321483E9, 0.0, 2024-02-26 18:52:54.321
54.0, 187500.0, 187500.0, 187500.0, 187500.0, 187500.0, 187500.0, 48833.42073362121, -186774.17180230282, 0.064, -0.014, 0.984, 192.0, 0.0, 0.0, 0.0, 0.0, 0.0, 0.0, 0.0, 0.0, 0.0, 1.708991574325476E9, 0.0, 2024-02-26 18:52:54.325
55.0, 187500.0, 187500.0, 187500.0, 187500.0, 187500.0, 187500.0, 49318.92297493493, -186784.05127335206, 0.064, -0.014, 0.984, 192.0, 0.0, 0.0, 0.0, 0.0, 0.0, 0.0, 0.0, 0.0, 0.0, 1.70899157432848E9, 0.0, 2024-02-26 18:52:54.328
56.0, 187500.0, 187500.0, 187500.0, 187500.0, 187500.0, 187500.0, 49120.14891149389, -186781.3914157619, 0.064, -0.014, 0.984, 192.0, 0.0, 0.0, 0.0, 0.0, 0.0, 0.0, 0.0, 0.0, 0.0, 1.708991574332542E9, 0.0, 2024-02-26 18:52:54.332
57.0, 187500.0, 187500.0, 187500.0, 187500.0, 187500.0, 187500.0, 48788.35961679931, -186773.836526136, 0.064, -0.014, 0.984, 192.0, 0.0, 0.0, 0.0, 0.0, 0.0, 0.0, 0.0, 0.0, 0.0, 1.708991574336532E9, 0.0, 2024-02-26 18:52:54.336
58.0, 187500.0, 187500.0, 187500.0, 187500.0, 187500.0, 187500.0, 48800.27309659399, -186774.10474706945, 0.066, -0.008, 0.986, 192.0, 2.0, 16.0, 255.0, 192.0, 30.0, 208.0, 0.0, 0.0, 0.0, 1.708991574340532E9, 0.0, 2024-02-26 18:52:54.340
59.0, 187500.0, 187500.0, 187500.0, 187500.0, 187500.0, 187500.0, 49237.428514650885, -186784.3865495189, 0.066, -0.008, 0.986, 192.0, 0.0, 0.0, 0.0, 0.0, 0.0, 0.0, 0.0, 0.0, 0.0, 1.70899157434554E9, 0.0, 2024-02-26 18:52:54.345
60.0, 187500.0, 187500.0, 187500.0, 187500.0, 187500.0, 187500.0, 49121.82529232804, -186783.4477762518, 0.066, -0.008, 0.986, 192.0, 0.0, 0.0, 0.0, 0.0, 0.0, 0.0, 0.0, 0.0, 0.0, 1.708991574349529E9, 0.0, 2024-02-26 18:52:54.349
61.0, 187500.0, 187500.0, 187500.0, 187500.0, 187500.0, 187500.0, 48684.26754287095, -186778.15041281588, 0.066, -0.008, 0.986, 192.0, 0.0, 0.0, 0.0, 0.0, 0.0, 0.0, 0.0, 0.0, 0.0, 1.708991574353533E9, 0.0, 2024-02-26 18:52:54.353
62.0, 187500.0, 187500.0, 187500.0, 187500.0, 187500.0, 187500.0, 48621.66030665163, -186778.91037212734, 0.066, -0.008, 0.986, 192.0, 0.0, 0.0, 0.0, 0.0, 0.0, 0.0, 0.0, 0.0, 0.0, 1.708991574356526E9, 0.0, 2024-02-26 18:52:54.356
63.0, 187500.0, 187500.0, 187500.0, 187500.0, 187500.0, 187500.0, 49047.505742014146, -186786.30879954205, 0.066, -0.008, 0.986, 192.0, 0.0, 0.0, 0.0, 0.0, 0.0, 0.0, 0.0, 0.0, 0.0, 1.708991574360543E9, 0.0, 2024-02-26 18:52:54.360
64.0, 187500.0, 187500.0, 187500.0, 187500.0, 187500.0, 187500.0, 49153.2518450322, -186785.41472976384, 0.066, -0.008, 0.986, 192.0, 0.0, 0.0, 0.0, 0.0, 0.0, 0.0, 0.0, 0.0, 0.0, 1.708991574364536E9, 0.0, 2024-02-26 18:52:54.364
65.0, 187500.0, 187500.0, 187500.0, 187500.0, 187500.0, 187500.0, 48755.50255245001, -186775.46820348123, 0.066, -0.008, 0.986, 192.0, 0.0, 0.0, 0.0, 0.0, 0.0, 0.0, 0.0, 0.0, 0.0, 1.708991574368535E9, 0.0, 2024-02-26 18:52:54.368
66.0, 187500.0, 187500.0, 187500.0, 187500.0, 187500.0, 187500.0, 48665.514429272946, -186775.2446860367, 0.066, -0.008, 0.986, 192.0, 0.0, 0.0, 0.0, 0.0, 0.0, 0.0, 0.0, 0.0, 0.0, 1.708991574373537E9, 0.0, 2024-02-26 18:52:54.373
67.0, 187500.0, 187500.0, 187500.0, 187500.0, 187500.0, 187500.0, 49045.829361179996, -186782.06196809554, 0.066, -0.008, 0.986, 192.0, 0.0, 0.0, 0.0, 0.0, 0.0, 0.0, 0.0, 0.0, 0.0, 1.708991574377578E9, 0.0, 2024-02-26 18:52:54.377
68.0, 187500.0, 187500.0, 187500.0, 187500.0, 187500.0, 187500.0, 49327.90837620597, -186786.06293035304, 0.068, -0.016, 0.986, 192.0, 2.0, 32.0, 255.0, 128.0, 30.0, 208.0, 0.0, 0.0, 0.0, 1.708991574381568E9, 0.0, 2024-02-26 18:52:54.381
69.0, 187500.0, 187500.0, 187500.0, 187500.0, 187500.0, 187500.0, 48957.092935692424, -186777.1892878043, 0.068, -0.016, 0.986, 192.0, 0.0, 0.0, 0.0, 0.0, 0.0, 0.0, 0.0, 0.0, 0.0, 1.70899157438457E9, 0.0, 2024-02-26 18:52:54.384
70.0, 187500.0, 187500.0, 187500.0, 187500.0, 187500.0, 187500.0, 48858.90172230026, -186773.2777325246, 0.068, -0.016, 0.986, 192.0, 0.0, 0.0, 0.0, 0.0, 0.0, 0.0, 0.0, 0.0, 0.0, 1.708991574388577E9, 0.0, 2024-02-26 18:52:54.388
71.0, 187500.0, 187500.0, 187500.0, 187500.0, 187500.0, 187500.0, 49196.54717404213, -186778.91037212734, 0.068, -0.016, 0.986, 192.0, 0.0, 0.0, 0.0, 0.0, 0.0, 0.0, 0.0, 0.0, 0.0, 1.708991574392575E9, 0.0, 2024-02-26 18:52:54.392
72.0, 187500.0, 187500.0, 187500.0, 187500.0, 187500.0, 187500.0, 49611.41790287708, -186783.06779659603, 0.068, -0.016, 0.986, 192.0, 0.0, 0.0, 0.0, 0.0, 0.0, 0.0, 0.0, 0.0, 0.0, 1.708991574396573E9, 0.0, 2024-02-26 18:52:54.396
73.0, 187500.0, 187500.0, 187500.0, 187500.0, 187500.0, 187500.0, 49253.81234333663, -186775.87053488143, 0.068, -0.016, 0.986, 192.0, 0.0, 0.0, 0.0, 0.0, 0.0, 0.0, 0.0, 0.0, 0.0, 1.708991574401566E9, 0.0, 2024-02-26 18:52:54.401
74.0, 187500.0, 187500.0, 187500.0, 187500.0, 187500.0, 187500.0, 49054.56889326202, -186773.05421508008, 0.068, -0.016, 0.986, 192.0, 0.0, 0.0, 0.0, 0.0, 0.0, 0.0, 0.0, 0.0, 0.0, 1.708991574405578E9, 0.0, 2024-02-26 18:52:54.405
75.0, 187500.0, 187500.0, 187500.0, 187500.0, 187500.0, 187500.0, 49257.12040151601, -186779.4915174832, 0.068, -0.016, 0.986, 192.0, 0.0, 0.0, 0.0, 0.0, 0.0, 0.0, 0.0, 0.0, 0.0, 1.708991574409565E9, 0.0, 2024-02-26 18:52:54.409
76.0, 187500.0, 187500.0, 187500.0, 187500.0, 187500.0, 187500.0, 49705.474043545015, -186785.92881988632, 0.068, -0.016, 0.986, 192.0, 0.0, 0.0, 0.0, 0.0, 0.0, 0.0, 0.0, 0.0, 0.0, 1.70899157441268E9, 0.0, 2024-02-26 18:52:54.412
77.0, 187500.0, 187500.0, 187500.0, 187500.0, 187500.0, 187500.0, 49412.979115602866, -186779.37975876092, 0.068, -0.016, 0.986, 192.0, 0.0, 0.0, 0.0, 0.0, 0.0, 0.0, 0.0, 0.0, 0.0, 1.708991574416667E9, 0.0, 2024-02-26 18:52:54.416
78.0, 187500.0, 187500.0, 187500.0, 187500.0, 187500.0, 187500.0, 49137.4491617023, -186776.22816279272, 0.068, -0.014, 0.986, 192.0, 2.0, 32.0, 255.0, 144.0, 30.0, 208.0, 0.0, 0.0, 0.0, 1.708991574420673E9, 0.0, 2024-02-26 18:52:54.420
79.0, 187500.0, 187500.0, 187500.0, 187500.0, 187500.0, 187500.0, 49184.790156458635, -186779.31270352754, 0.068, -0.014, 0.986, 192.0, 0.0, 0.0, 0.0, 0.0, 0.0, 0.0, 0.0, 0.0, 0.0, 1.7089915744247E9, 0.0, 2024-02-26 18:52:54.424
80.0, 187500.0, 187500.0, 187500.0, 187500.0, 187500.0, 187500.0, 49625.20892920601, -186788.0969390985, 0.068, -0.014, 0.986, 192.0, 0.0, 0.0, 0.0, 0.0, 0.0, 0.0, 0.0, 0.0, 0.0, 1.708991574429671E9, 0.0, 2024-02-26 18:52:54.429
81.0, 187500.0, 187500.0, 187500.0, 187500.0, 187500.0, 187500.0, 49398.91986834048, -186782.77722391812, 0.068, -0.014, 0.986, 192.0, 0.0, 0.0, 0.0, 0.0, 0.0, 0.0, 0.0, 0.0, 0.0, 1.708991574433683E9, 0.0, 2024-02-26 18:52:54.433
82.0, 187500.0, 187500.0, 187500.0, 187500.0, 187500.0, 187500.0, 49032.35125927344, -186774.1941540473, 0.068, -0.014, 0.986, 192.0, 0.0, 0.0, 0.0, 0.0, 0.0, 0.0, 0.0, 0.0, 0.0, 1.708991574437678E9, 0.0, 2024-02-26 18:52:54.437
83.0, 187500.0, 187500.0, 187500.0, 187500.0, 187500.0, 187500.0, 49033.93823312977, -186776.04934883708, 0.068, -0.014, 0.986, 192.0, 0.0, 0.0, 0.0, 0.0, 0.0, 0.0, 0.0, 0.0, 0.0, 1.708991574440677E9, 0.0, 2024-02-26 18:52:54.440
84.0, 187500.0, 187500.0, 187500.0, 187500.0, 187500.0, 187500.0, 49495.948791020965, -186784.3865495189, 0.068, -0.014, 0.986, 192.0, 0.0, 0.0, 0.0, 0.0, 0.0, 0.0, 0.0, 0.0, 0.0, 1.708991574444706E9, 0.0, 2024-02-26 18:52:54.444
85.0, 187500.0, 187500.0, 187500.0, 187500.0, 187500.0, 187500.0, 49450.77591547679, -186783.2913140406, 0.068, -0.014, 0.986, 192.0, 0.0, 0.0, 0.0, 0.0, 0.0, 0.0, 0.0, 0.0, 0.0, 1.708991574448682E9, 0.0, 2024-02-26 18:52:54.448
86.0, 187500.0, 187500.0, 187500.0, 187500.0, 187500.0, 187500.0, 49059.64273925337, -186775.82583139252, 0.068, -0.014, 0.986, 192.0, 0.0, 0.0, 0.0, 0.0, 0.0, 0.0, 0.0, 0.0, 0.0, 1.708991574452682E9, 0.0, 2024-02-26 18:52:54.452
87.0, 187500.0, 187500.0, 187500.0, 187500.0, 187500.0, 187500.0, 49010.021866562594, -186773.90358136938, 0.068, -0.014, 0.986, 192.0, 0.0, 0.0, 0.0, 0.0, 0.0, 0.0, 0.0, 0.0, 0.0, 1.708991574457672E9, 0.0, 2024-02-26 18:52:54.457
88.0, 187500.0, 187500.0, 187500.0, 187500.0, 187500.0, 187500.0, 49451.20059862144, -186780.27382853912, 0.07200000000000001, -0.012, 0.992, 192.0, 2.0, 64.0, 255.0, 160.0, 31.0, 0.0, 0.0, 0.0, 0.0, 1.708991574461674E9, 0.0, 2024-02-26 18:52:54.461
89.0, 187500.0, 187500.0, 187500.0, 187500.0, 187500.0, 187500.0, 49596.688103281034, -186782.37489251792, 0.07200000000000001, -0.012, 0.992, 192.0, 0.0, 0.0, 0.0, 0.0, 0.0, 0.0, 0.0, 0.0, 0.0, 1.708991574464669E9, 0.0, 2024-02-26 18:52:54.464
90.0, 187500.0, 187500.0, 187500.0, 187500.0, 187500.0, 187500.0, 49189.327560583064, -186776.1387558149, 0.07200000000000001, -0.012, 0.992, 192.0, 0.0, 0.0, 0.0, 0.0, 0.0, 0.0, 0.0, 0.0, 0.0, 1.708991574468662E9, 0.0, 2024-02-26 18:52:54.468
91.0, 187500.0, 187500.0, 187500.0, 187500.0, 187500.0, 187500.0, 49068.51638180213, -186774.082395325, 0.07200000000000001, -0.012, 0.992, 192.0, 0.0, 0.0, 0.0, 0.0, 0.0, 0.0, 0.0, 0.0, 0.0, 1.708991574472674E9, 0.0, 2024-02-26 18:52:54.472
92.0, 187500.0, 187500.0, 187500.0, 187500.0, 187500.0, 187500.0, 49375.33877794013, -186782.55370647355, 0.07200000000000001, -0.012, 0.992, 192.0, 0.0, 0.0, 0.0, 0.0, 0.0, 0.0, 0.0, 0.0, 0.0, 1.708991574476668E9, 0.0, 2024-02-26 18:52:54.476
93.0, 187500.0, 187500.0, 187500.0, 187500.0, 187500.0, 187500.0, 49564.00985288738, -186786.75583443115, 0.07200000000000001, -0.012, 0.992, 192.0, 0.0, 0.0, 0.0, 0.0, 0.0, 0.0, 0.0, 0.0, 0.0, 1.708991574480674E9, 0.0, 2024-02-26 18:52:54.480
94.0, 187500.0, 187500.0, 187500.0, 187500.0, 187500.0, 187500.0, 49077.79235575108, -186779.6926831833, 0.07200000000000001, -0.012, 0.992, 192.0, 0.0, 0.0, 0.0, 0.0, 0.0, 0.0, 0.0, 0.0, 0.0, 1.708991574484678E9, 0.0, 2024-02-26 18:52:54.484
95.0, 187500.0, 187500.0, 187500.0, 187500.0, 187500.0, 187500.0, 48801.32362858339, -186777.6363226934, 0.07200000000000001, -0.012, 0.992, 192.0, 0.0, 0.0, 0.0, 0.0, 0.0, 0.0, 0.0, 0.0, 0.0, 1.708991574489676E9, 0.0, 2024-02-26 18:52:54.489
96.0, 187500.0, 187500.0, 187500.0, 187500.0, 187500.0, 187500.0, 48938.228063372146, -186784.2971425411, 0.07200000000000001, -0.012, 0.992, 192.0, 0.0, 0.0, 0.0, 0.0, 0.0, 0.0, 0.0, 0.0, 0.0, 1.708991574492676E9, 0.0, 2024-02-26 18:52:54.492
97.0, 187500.0, 187500.0, 187500.0, 187500.0, 187500.0, 187500.0, 49176.54236275463, -186790.0415408661, 0.07200000000000001, -0.012, 0.99, 192.0, 2.0, 64.0, 255.0, 160.0, 30.0, 240.0, 0.0, 0.0, 0.0, 1.708991574496695E9, 0.0, 2024-02-26 18:52:54.496
98.0, 187500.0, 187500.0, 187500.0, 187500.0, 187500.0, 187500.0, 48676.35502533377, -186784.56536347454, 0.07200000000000001, -0.012, 0.99, 192.0, 0.0, 0.0, 0.0, 0.0, 0.0, 0.0, 0.0, 0.0, 0.0, 1.708991574500677E9, 0.0, 2024-02-26 18:52:54.500
99.0, 187500.0, 187500.0, 187500.0, 187500.0, 187500.0, 187500.0, 48290.519212546256, -186781.838450651, 0.07200000000000001, -0.012, 0.99, 192.0, 0.0, 0.0, 0.0, 0.0, 0.0, 0.0, 0.0, 0.0, 0.0, 1.708991574504681E9, 0.0, 2024-02-26 18:52:54.504
100.0, 187500.0, 187500.0, 187500.0, 187500.0, 187500.0, 187500.0, 48273.397776293496, -186788.3428082875, 0.07200000000000001, -0.012, 0.99, 192.0, 0.0, 0.0, 0.0, 0.0, 0.0, 0.0, 0.0, 0.0, 0.0, 1.708991574508747E9, 0.0, 2024-02-26 18:52:54.508
101.0, 187500.0, 187500.0, 187500.0, 187500.0, 187500.0, 187500.0, 48531.09103811873, -186795.40595953536, 0.07200000000000001, -0.012, 0.99, 192.0, 0.0, 0.0, 0.0, 0.0, 0.0, 0.0, 0.0, 0.0, 0.0, 1.708991574512711E9, 0.0, 2024-02-26 18:52:54.512
102.0, 187500.0, 187500.0, 187500.0, 187500.0, 187500.0, 187500.0, 48067.62761683793, -186791.1367763444, 0.07200000000000001, -0.012, 0.99, 192.0, 0.0, 0.0, 0.0, 0.0, 0.0, 0.0, 0.0, 0.0, 0.0, 1.708991574517693E9, 0.0, 2024-02-26 18:52:54.517
103.0, 187500.0, 187500.0, 187500.0, 187500.0, 187500.0, 187500.0, 47602.733683912, -186785.6382472084, 0.07200000000000001, -0.012, 0.99, 192.0, 0.0, 0.0, 0.0, 0.0, 0.0, 0.0, 0.0, 0.0, 0.0, 1.708991574520698E9, 0.0, 2024-02-26 18:52:54.520
104.0, 187500.0, 187500.0, 187500.0, 187500.0, 187500.0, 187500.0, 47540.1711511816, -186789.37098853244, 0.07200000000000001, -0.012, 0.99, 192.0, 0.0, 0.0, 0.0, 0.0, 0.0, 0.0, 0.0, 0.0, 0.0, 1.708991574524694E9, 0.0, 2024-02-26 18:52:54.524
105.0, 187500.0, 187500.0, 187500.0, 187500.0, 187500.0, 187500.0, 47927.34806863643, -186796.90352641387, 0.07200000000000001, -0.012, 0.99, 192.0, 0.0, 0.0, 0.0, 0.0, 0.0, 0.0, 0.0, 0.0, 0.0, 1.70899157452871E9, 0.0, 2024-02-26 18:52:54.528
106.0, 187500.0, 187500.0, 187500.0, 187500.0, 187500.0, 187500.0, 47687.96088552009, -186793.28254381212, 0.07200000000000001, -0.012, 0.99, 192.0, 0.0, 0.0, 0.0, 0.0, 0.0, 0.0, 0.0, 0.0, 0.0, 1.70899157453273E9, 0.0, 2024-02-26 18:52:54.532
107.0, 187500.0, 187500.0, 187500.0, 187500.0, 187500.0, 187500.0, 47261.243732123825, -186787.44873850927, 0.07, -0.01, 0.984, 192.0, 2.0, 48.0, 255.0, 176.0, 30.0, 192.0, 0.0, 0.0, 0.0, 1.70899157453675E9, 0.0, 2024-02-26 18:52:54.536
108.0, 187500.0, 187500.0, 187500.0, 187500.0, 187500.0, 187500.0, 47188.19823124388, -186790.39916877737, 0.07, -0.01, 0.984, 192.0, 0.0, 0.0, 0.0, 0.0, 0.0, 0.0, 0.0, 0.0, 0.0, 1.708991574540749E9, 0.0, 2024-02-26 18:52:54.540
109.0, 187500.0, 187500.0, 187500.0, 187500.0, 187500.0, 187500.0, 47600.81143388885, -186798.31168631456, 0.07, -0.01, 0.984, 192.0, 0.0, 0.0, 0.0, 0.0, 0.0, 0.0, 0.0, 0.0, 0.0, 1.708991574545737E9, 0.0, 2024-02-26 18:52:54.545
110.0, 187500.0, 187500.0, 187500.0, 187500.0, 187500.0, 187500.0, 47555.45974438903, -186797.57407874754, 0.07, -0.01, 0.984, 192.0, 0.0, 0.0, 0.0, 0.0, 0.0, 0.0, 0.0, 0.0, 0.0, 1.70899157454873E9, 0.0, 2024-02-26 18:52:54.548
111.0, 187500.0, 187500.0, 187500.0, 187500.0, 187500.0, 187500.0, 47101.24994531274, -186790.57798273303, 0.07, -0.01, 0.984, 192.0, 0.0, 0.0, 0.0, 0.0, 0.0, 0.0, 0.0, 0.0, 0.0, 1.708991574552732E9, 0.0, 2024-02-26 18:52:54.552
112.0, 187500.0, 187500.0, 187500.0, 187500.0, 187500.0, 187500.0, 46983.61271424445, -186790.22035482174, 0.07, -0.01, 0.984, 192.0, 0.0, 0.0, 0.0, 0.0, 0.0, 0.0, 0.0, 0.0, 0.0, 1.708991574556734E9, 0.0, 2024-02-26 18:52:54.556
113.0, 187500.0, 187500.0, 187500.0, 187500.0, 187500.0, 187500.0, 47356.1268873366, -186796.63530548042, 0.07, -0.01, 0.984, 192.0, 0.0, 0.0, 0.0, 0.0, 0.0, 0.0, 0.0, 0.0, 0.0, 1.708991574560732E9, 0.0, 2024-02-26 18:52:54.560
114.0, 187500.0, 187500.0, 187500.0, 187500.0, 187500.0, 187500.0, 47473.33943526023, -186798.6916659703, 0.07, -0.01, 0.984, 192.0, 0.0, 0.0, 0.0, 0.0, 0.0, 0.0, 0.0, 0.0, 0.0, 1.70899157456476E9, 0.0, 2024-02-26 18:52:54.564
115.0, 187500.0, 187500.0, 187500.0, 187500.0, 187500.0, 187500.0, 47008.378447100935, -186790.93561064432, 0.07, -0.01, 0.984, 192.0, 0.0, 0.0, 0.0, 0.0, 0.0, 0.0, 0.0, 0.0, 0.0, 1.708991574568739E9, 0.0, 2024-02-26 18:52:54.568
116.0, 187500.0, 187500.0, 187500.0, 187500.0, 187500.0, 187500.0, 46825.69763966771, -186789.72861644372, 0.07, -0.01, 0.984, 192.0, 0.0, 0.0, 0.0, 0.0, 0.0, 0.0, 0.0, 0.0, 0.0, 1.708991574573744E9, 0.0, 2024-02-26 18:52:54.573
117.0, 187500.0, 187500.0, 187500.0, 187500.0, 187500.0, 187500.0, 47102.3675325355, -186798.13287235892, 0.07200000000000001, -0.012, 0.984, 192.0, 2.0, 64.0, 255.0, 160.0, 30.0, 192.0, 0.0, 0.0, 0.0, 1.708991574576823E9, 0.0, 2024-02-26 18:52:54.576
118.0, 187500.0, 187500.0, 187500.0, 187500.0, 187500.0, 187500.0, 47342.58173019669, -186802.17853810533, 0.07200000000000001, -0.012, 0.984, 192.0, 0.0, 0.0, 0.0, 0.0, 0.0, 0.0, 0.0, 0.0, 0.0, 1.708991574580744E9, 0.0, 2024-02-26 18:52:54.580
119.0, 187500.0, 187500.0, 187500.0, 187500.0, 187500.0, 187500.0, 46899.61485858141, -186792.7908054341, 0.07200000000000001, -0.012, 0.984, 192.0, 0.0, 0.0, 0.0, 0.0, 0.0, 0.0, 0.0, 0.0, 0.0, 1.708991574584767E9, 0.0, 2024-02-26 18:52:54.584
120.0, 187500.0, 187500.0, 187500.0, 187500.0, 187500.0, 187500.0, 46664.787431333956, -186791.3379420445, 0.07200000000000001, -0.012, 0.984, 192.0, 0.0, 0.0, 0.0, 0.0, 0.0, 0.0, 0.0, 0.0, 0.0, 1.708991574588779E9, 0.0, 2024-02-26 18:52:54.588
121.0, 187500.0, 187500.0, 187500.0, 187500.0, 187500.0, 187500.0, 46849.681061468254, -186795.29420081308, 0.07200000000000001, -0.012, 0.984, 192.0, 0.0, 0.0, 0.0, 0.0, 0.0, 0.0, 0.0, 0.0, 0.0, 1.708991574592784E9, 0.0, 2024-02-26 18:52:54.592
122.0, 187500.0, 187500.0, 187500.0, 187500.0, 187500.0, 187500.0, 47233.05818236568, -186799.65279098187, 0.07200000000000001, -0.012, 0.984, 192.0, 0.0, 0.0, 0.0, 0.0, 0.0, 0.0, 0.0, 0.0, 0.0, 1.708991574596775E9, 0.0, 2024-02-26 18:52:54.596
123.0, 187500.0, 187500.0, 187500.0, 187500.0, 187500.0, 187500.0, 46861.95216917422, -186791.67321821133, 0.07200000000000001, -0.012, 0.984, 192.0, 0.0, 0.0, 0.0, 0.0, 0.0, 0.0, 0.0, 0.0, 0.0, 1.708991574599795E9, 0.0, 2024-02-26 18:52:54.599
124.0, 187500.0, 187500.0, 187500.0, 187500.0, 187500.0, 187500.0, 46644.357936901804, -186785.9958751197, 0.07200000000000001, -0.012, 0.984, 192.0, 0.0, 0.0, 0.0, 0.0, 0.0, 0.0, 0.0, 0.0, 0.0, 1.708991574603795E9, 0.0, 2024-02-26 18:52:54.603
125.0, 187500.0, 187500.0, 187500.0, 187500.0, 187500.0, 187500.0, 46833.07371533796, -186791.0920728555, 0.07200000000000001, -0.012, 0.984, 192.0, 0.0, 0.0, 0.0, 0.0, 0.0, 0.0, 0.0, 0.0, 0.0, 1.708991574607799E9, 0.0, 2024-02-26 18:52:54.607
126.0, 187500.0, 187500.0, 187500.0, 187500.0, 187500.0, 187500.0, 47356.55157048125, -186799.00459039267, 0.07200000000000001, -0.012, 0.984, 192.0, 0.0, 0.0, 0.0, 0.0, 0.0, 0.0, 0.0, 0.0, 0.0, 1.708991574612829E9, 0.0, 2024-02-26 18:52:54.612
127.0, 187500.0, 187500.0, 187500.0, 187500.0, 187500.0, 187500.0, 47158.112783207034, -186793.52841300113, 0.074, -0.014, 0.988, 192.0, 2.0, 80.0, 255.0, 144.0, 30.0, 224.0, 0.0, 0.0, 0.0, 1.70899157461681E9, 0.0, 2024-02-26 18:52:54.616
128.0, 187500.0, 187500.0, 187500.0, 187500.0, 187500.0, 187500.0, 46880.28059962757, -186785.86176465295, 0.074, -0.014, 0.988, 192.0, 0.0, 0.0, 0.0, 0.0, 0.0, 0.0, 0.0, 0.0, 0.0, 1.708991574622836E9, 0.0, 2024-02-26 18:52:54.622
129.0, 187500.0, 187500.0, 187500.0, 187500.0, 187500.0, 187500.0, 46963.67495819032, -186788.23104956522, 0.074, -0.014, 0.988, 192.0, 0.0, 0.0, 0.0, 0.0, 0.0, 0.0, 0.0, 0.0, 0.0, 1.708991574625856E9, 0.0, 2024-02-26 18:52:54.625
130.0, 187500.0, 187500.0, 187500.0, 187500.0, 187500.0, 187500.0, 47461.113031043176, -186798.95988690376, 0.074, -0.014, 0.988, 192.0, 0.0, 0.0, 0.0, 0.0, 0.0, 0.0, 0.0, 0.0, 0.0, 1.708991574628819E9, 0.0, 2024-02-26 18:52:54.628
131.0, 187500.0, 187500.0, 187500.0, 187500.0, 187500.0, 187500.0, 47364.41938452952, -186794.64600022387, 0.074, -0.014, 0.988, 192.0, 0.0, 0.0, 0.0, 0.0, 0.0, 0.0, 0.0, 0.0, 0.0, 1.708991574631844E9, 0.0, 2024-02-26 18:52:54.631
132.0, 187500.0, 187500.0, 187500.0, 187500.0, 187500.0, 187500.0, 47054.69126161233, -186788.29810479857, 0.074, -0.014, 0.988, 192.0, 0.0, 0.0, 0.0, 0.0, 0.0, 0.0, 0.0, 0.0, 0.0, 1.708991574635839E9, 0.0, 2024-02-26 18:52:54.635
133.0, 187500.0, 187500.0, 187500.0, 187500.0, 187500.0, 187500.0, 47076.528915945164, -186789.81802342154, 0.074, -0.014, 0.988, 192.0, 0.0, 0.0, 0.0, 0.0, 0.0, 0.0, 0.0, 0.0, 0.0, 1.708991574640818E9, 0.0, 2024-02-26 18:52:54.640
134.0, 187500.0, 187500.0, 187500.0, 187500.0, 187500.0, 187500.0, 47565.6744916051, -186796.68000896933, 0.074, -0.014, 0.988, 192.0, 0.0, 0.0, 0.0, 0.0, 0.0, 0.0, 0.0, 0.0, 0.0, 1.708991574644875E9, 0.0, 2024-02-26 18:52:54.644
135.0, 187500.0, 187500.0, 187500.0, 187500.0, 187500.0, 187500.0, 47640.75400123048, -186795.338904302, 0.074, -0.014, 0.988, 192.0, 0.0, 0.0, 0.0, 0.0, 0.0, 0.0, 0.0, 0.0, 0.0, 1.708991574648874E9, 0.0, 2024-02-26 18:52:54.648
136.0, 187500.0, 187500.0, 187500.0, 187500.0, 187500.0, 187500.0, 47303.60028786663, -186785.45943325275, 0.074, -0.014, 0.988, 192.0, 0.0, 0.0, 0.0, 0.0, 0.0, 0.0, 0.0, 0.0, 0.0, 1.708991574652868E9, 0.0, 2024-02-26 18:52:54.652
137.0, 187500.0, 187500.0, 187500.0, 187500.0, 187500.0, 187500.0, 47305.52253788979, -186787.96282863175, 0.07200000000000001, -0.01, 0.982, 192.0, 2.0, 64.0, 255.0, 176.0, 30.0, 176.0, 0.0, 0.0, 0.0, 1.70899157465584E9, 0.0, 2024-02-26 18:52:54.655
138.0, 187500.0, 187500.0, 187500.0, 187500.0, 187500.0, 187500.0, 47779.78185174249, -186795.85299442447, 0.07200000000000001, -0.01, 0.982, 192.0, 0.0, 0.0, 0.0, 0.0, 0.0, 0.0, 0.0, 0.0, 0.0, 1.70899157465984E9, 0.0, 2024-02-26 18:52:54.659
139.0, 187500.0, 187500.0, 187500.0, 187500.0, 187500.0, 187500.0, 48016.21860459073, -186795.60712523546, 0.07200000000000001, -0.01, 0.982, 192.0, 0.0, 0.0, 0.0, 0.0, 0.0, 0.0, 0.0, 0.0, 0.0, 1.708991574663906E9, 0.0, 2024-02-26 18:52:54.663
140.0, 187500.0, 187500.0, 187500.0, 187500.0, 187500.0, 187500.0, 47624.481931267015, -186784.81123266355, 0.07200000000000001, -0.01, 0.982, 192.0, 0.0, 0.0, 0.0, 0.0, 0.0, 0.0, 0.0, 0.0, 0.0, 1.708991574669049E9, 0.0, 2024-02-26 18:52:54.669
141.0, 187500.0, 187500.0, 187500.0, 187500.0, 187500.0, 187500.0, 47525.10607541872, -186780.9890843617, 0.07200000000000001, -0.01, 0.982, 192.0, 0.0, 0.0, 0.0, 0.0, 0.0, 0.0, 0.0, 0.0, 0.0, 1.708991574672882E9, 0.0, 2024-02-26 18:52:54.672
142.0, 187500.0, 187500.0, 187500.0, 187500.0, 187500.0, 187500.0, 47878.97889363515, -186788.27575305413, 0.07200000000000001, -0.01, 0.982, 192.0, 0.0, 0.0, 0.0, 0.0, 0.0, 0.0, 0.0, 0.0, 0.0, 1.708991574676896E9, 0.0, 2024-02-26 18:52:54.676
143.0, 187500.0, 187500.0, 187500.0, 187500.0, 187500.0, 187500.0, 48231.82353160662, -186793.2378403232, 0.07200000000000001, -0.01, 0.982, 192.0, 0.0, 0.0, 0.0, 0.0, 0.0, 0.0, 0.0, 0.0, 0.0, 1.70899157468088E9, 0.0, 2024-02-26 18:52:54.680
144.0, 187500.0, 187500.0, 187500.0, 187500.0, 187500.0, 187500.0, 47877.347216289905, -186785.72765418622, 0.07200000000000001, -0.01, 0.982, 192.0, 0.0, 0.0, 0.0, 0.0, 0.0, 0.0, 0.0, 0.0, 0.0, 1.708991574683898E9, 0.0, 2024-02-26 18:52:54.683
145.0, 187500.0, 187500.0, 187500.0, 187500.0, 187500.0, 187500.0, 47724.796560382434, -186783.20190706276, 0.07200000000000001, -0.01, 0.982, 192.0, 0.0, 0.0, 0.0, 0.0, 0.0, 0.0, 0.0, 0.0, 0.0, 1.708991574687928E9, 0.0, 2024-02-26 18:52:54.687
146.0, 187500.0, 187500.0, 187500.0, 187500.0, 187500.0, 187500.0, 47984.12149955291, -186787.7393111872, 0.07200000000000001, -0.01, 0.982, 192.0, 0.0, 0.0, 0.0, 0.0, 0.0, 0.0, 0.0, 0.0, 0.0, 1.708991574691914E9, 0.0, 2024-02-26 18:52:54.691
147.0, 187500.0, 187500.0, 187500.0, 187500.0, 187500.0, 187500.0, 48427.49070256838, -186793.30489555656, 0.066, -0.01, 0.982, 192.0, 2.0, 16.0, 255.0, 176.0, 30.0, 176.0, 0.0, 0.0, 0.0, 1.708991574696909E9, 0.0, 2024-02-26 18:52:54.696
148.0, 187500.0, 187500.0, 187500.0, 187500.0, 187500.0, 187500.0, 48143.53414100816, -186787.02405536463, 0.066, -0.01, 0.982, 192.0, 0.0, 0.0, 0.0, 0.0, 0.0, 0.0, 0.0, 0.0, 0.0, 1.708991574701989E9, 0.0, 2024-02-26 18:52:54.701
149.0, 187500.0, 187500.0, 187500.0, 187500.0, 187500.0, 187500.0, 47915.54634756403, -186782.12902332892, 0.066, -0.01, 0.982, 192.0, 0.0, 0.0, 0.0, 0.0, 0.0, 0.0, 0.0, 0.0, 0.0, 1.70899157470592E9, 0.0, 2024-02-26 18:52:54.705
150.0, 187500.0, 187500.0, 187500.0, 187500.0, 187500.0, 187500.0, 48069.102831971984, -186784.7888809191, 0.066, -0.01, 0.982, 192.0, 0.0, 0.0, 0.0, 0.0, 0.0, 0.0, 0.0, 0.0, 0.0, 1.708991574708921E9, 0.0, 2024-02-26 18:52:54.708
151.0, 187500.0, 187500.0, 187500.0, 187500.0, 187500.0, 187500.0, 48557.53315180936, -186792.5449362451, 0.066, -0.01, 0.982, 192.0, 0.0, 0.0, 0.0, 0.0, 0.0, 0.0, 0.0, 0.0, 0.0, 1.708991574711941E9, 0.0, 2024-02-26 18:52:54.711
152.0, 187500.0, 187500.0, 187500.0, 187500.0, 187500.0, 187500.0, 48325.32087866317, -186787.87342165393, 0.066, -0.01, 0.982, 192.0, 0.0, 0.0, 0.0, 0.0, 0.0, 0.0, 0.0, 0.0, 0.0, 1.708991574715934E9, 0.0, 2024-02-26 18:52:54.715
153.0, 187500.0, 187500.0, 187500.0, 187500.0, 187500.0, 187500.0, 47983.27213326361, -186780.8996773839, 0.066, -0.01, 0.982, 192.0, 0.0, 0.0, 0.0, 0.0, 0.0, 0.0, 0.0, 0.0, 0.0, 1.708991574719933E9, 0.0, 2024-02-26 18:52:54.719
154.0, 187500.0, 187500.0, 187500.0, 187500.0, 187500.0, 187500.0, 47995.565592714025, -186782.06196809554, 0.066, -0.01, 0.982, 192.0, 0.0, 0.0, 0.0, 0.0, 0.0, 0.0, 0.0, 0.0, 0.0, 1.708991574723932E9, 0.0, 2024-02-26 18:52:54.723
155.0, 187500.0, 187500.0, 187500.0, 187500.0, 187500.0, 187500.0, 48461.688871585, -186789.6392094659, 0.066, -0.01, 0.982, 192.0, 0.0, 0.0, 0.0, 0.0, 0.0, 0.0, 0.0, 0.0, 0.0, 1.708991574728936E9, 0.0, 2024-02-26 18:52:54.728
156.0, 187500.0, 187500.0, 187500.0, 187500.0, 187500.0, 187500.0, 48349.863094075095, -186786.71113094225, 0.066, -0.01, 0.982, 192.0, 0.0, 0.0, 0.0, 0.0, 0.0, 0.0, 0.0, 0.0, 0.0, 1.708991574732919E9, 0.0, 2024-02-26 18:52:54.732
157.0, 187500.0, 187500.0, 187500.0, 187500.0, 187500.0, 187500.0, 47968.29646447855, -186777.32339827102, 0.068, -0.012, 0.98, 192.0, 2.0, 32.0, 255.0, 160.0, 30.0, 160.0, 0.0, 0.0, 0.0, 1.70899157473694E9, 0.0, 2024-02-26 18:52:54.736
158.0, 187500.0, 187500.0, 187500.0, 187500.0, 187500.0, 187500.0, 47937.182836196764, -186775.95994185924, 0.068, -0.012, 0.98, 192.0, 0.0, 0.0, 0.0, 0.0, 0.0, 0.0, 0.0, 0.0, 0.0, 1.708991574740925E9, 0.0, 2024-02-26 18:52:54.740
159.0, 187500.0, 187500.0, 187500.0, 187500.0, 187500.0, 187500.0, 48389.492736994354, -186784.56536347454, 0.068, -0.012, 0.98, 192.0, 0.0, 0.0, 0.0, 0.0, 0.0, 0.0, 0.0, 0.0, 0.0, 1.708991574743932E9, 0.0, 2024-02-26 18:52:54.743
160.0, 187500.0, 187500.0, 187500.0, 187500.0, 187500.0, 187500.0, 48461.95709251846, -186783.0901483405, 0.068, -0.012, 0.98, 192.0, 0.0, 0.0, 0.0, 0.0, 0.0, 0.0, 0.0, 0.0, 0.0, 1.70899157474798E9, 0.0, 2024-02-26 18:52:54.747
161.0, 187500.0, 187500.0, 187500.0, 187500.0, 187500.0, 187500.0, 48057.09994519949, -186772.89775286888, 0.068, -0.012, 0.98, 192.0, 0.0, 0.0, 0.0, 0.0, 0.0, 0.0, 0.0, 0.0, 0.0, 1.708991574751974E9, 0.0, 2024-02-26 18:52:54.751
162.0, 187500.0, 187500.0, 187500.0, 187500.0, 187500.0, 187500.0, 47979.94172333977, -186774.06004358054, 0.068, -0.012, 0.98, 192.0, 0.0, 0.0, 0.0, 0.0, 0.0, 0.0, 0.0, 0.0, 0.0, 1.70899157475697E9, 0.0, 2024-02-26 18:52:54.756
163.0, 187500.0, 187500.0, 187500.0, 187500.0, 187500.0, 187500.0, 48378.450975233434, -186783.38072101842, 0.068, -0.012, 0.98, 192.0, 0.0, 0.0, 0.0, 0.0, 0.0, 0.0, 0.0, 0.0, 0.0, 1.70899157476099E9, 0.0, 2024-02-26 18:52:54.760
164.0, 187500.0, 187500.0, 187500.0, 187500.0, 187500.0, 187500.0, 48624.56603343082, -186785.90646814185, 0.068, -0.012, 0.98, 192.0, 0.0, 0.0, 0.0, 0.0, 0.0, 0.0, 0.0, 0.0, 0.0, 1.708991574763977E9, 0.0, 2024-02-26 18:52:54.763
165.0, 187500.0, 187500.0, 187500.0, 187500.0, 187500.0, 187500.0, 48219.35125820056, -186779.089186083, 0.068, -0.012, 0.98, 192.0, 0.0, 0.0, 0.0, 0.0, 0.0, 0.0, 0.0, 0.0, 0.0, 1.708991574767975E9, 0.0, 2024-02-26 18:52:54.767
166.0, 187500.0, 187500.0, 187500.0, 187500.0, 187500.0, 187500.0, 48083.47500365675, -186776.00464534815, 0.068, -0.012, 0.98, 192.0, 0.0, 0.0, 0.0, 0.0, 0.0, 0.0, 0.0, 0.0, 0.0, 1.708991574771973E9, 0.0, 2024-02-26 18:52:54.771
167.0, 187500.0, 187500.0, 187500.0, 187500.0, 187500.0, 187500.0, 48392.35376028463, -186780.45264249475, 0.066, -0.012, 0.978, 192.0, 2.0, 16.0, 255.0, 160.0, 30.0, 144.0, 0.0, 0.0, 0.0, 1.708991574775974E9, 0.0, 2024-02-26 18:52:54.775
168.0, 187500.0, 187500.0, 187500.0, 187500.0, 187500.0, 187500.0, 48738.09054351933, -186787.47109025373, 0.066, -0.012, 0.978, 192.0, 0.0, 0.0, 0.0, 0.0, 0.0, 0.0, 0.0, 0.0, 0.0, 1.70899157478197E9, 0.0, 2024-02-26 18:52:54.781
169.0, 187500.0, 187500.0, 187500.0, 187500.0, 187500.0, 187500.0, 48335.17799796796, -186779.31270352754, 0.066, -0.012, 0.978, 192.0, 0.0, 0.0, 0.0, 0.0, 0.0, 0.0, 0.0, 0.0, 0.0, 1.708991574784965E9, 0.0, 2024-02-26 18:52:54.784
170.0, 187500.0, 187500.0, 187500.0, 187500.0, 187500.0, 187500.0, 48115.43799822784, -186772.45071797978, 0.066, -0.012, 0.978, 192.0, 0.0, 0.0, 0.0, 0.0, 0.0, 0.0, 0.0, 0.0, 0.0, 1.708991574788969E9, 0.0, 2024-02-26 18:52:54.788
171.0, 187500.0, 187500.0, 187500.0, 187500.0, 187500.0, 187500.0, 48316.84956751461, -186776.40697674835, 0.066, -0.012, 0.978, 192.0, 0.0, 0.0, 0.0, 0.0, 0.0, 0.0, 0.0, 0.0, 0.0, 1.708991574792026E9, 0.0, 2024-02-26 18:52:54.792
172.0, 187500.0, 187500.0, 187500.0, 187500.0, 187500.0, 187500.0, 48761.64928217522, -186784.9453431303, 0.066, -0.012, 0.978, 192.0, 0.0, 0.0, 0.0, 0.0, 0.0, 0.0, 0.0, 0.0, 0.0, 1.708991574796014E9, 0.0, 2024-02-26 18:52:54.796
173.0, 187500.0, 187500.0, 187500.0, 187500.0, 187500.0, 187500.0, 48445.81913302173, -186779.089186083, 0.066, -0.012, 0.978, 192.0, 0.0, 0.0, 0.0, 0.0, 0.0, 0.0, 0.0, 0.0, 0.0, 1.70899157480002E9, 0.0, 2024-02-26 18:52:54.800
174.0, 187500.0, 187500.0, 187500.0, 187500.0, 187500.0, 187500.0, 48197.06656897862, -186774.10474706945, 0.066, -0.012, 0.978, 192.0, 0.0, 0.0, 0.0, 0.0, 0.0, 0.0, 0.0, 0.0, 0.0, 1.708991574804028E9, 0.0, 2024-02-26 18:52:54.804
175.0, 187500.0, 187500.0, 187500.0, 187500.0, 187500.0, 187500.0, 48319.93410824944, -186778.0386540936, 0.066, -0.012, 0.978, 192.0, 0.0, 0.0, 0.0, 0.0, 0.0, 0.0, 0.0, 0.0, 0.0, 1.708991574808015E9, 0.0, 2024-02-26 18:52:54.808
176.0, 187500.0, 187500.0, 187500.0, 187500.0, 187500.0, 187500.0, 48799.53548902697, -186784.05127335206, 0.066, -0.012, 0.978, 192.0, 0.0, 0.0, 0.0, 0.0, 0.0, 0.0, 0.0, 0.0, 0.0, 1.708991574814018E9, 0.0, 2024-02-26 18:52:54.814
177.0, 187500.0, 187500.0, 187500.0, 187500.0, 187500.0, 187500.0, 48570.47481184898, -186780.00560760565, 0.074, -0.008, 0.98, 192.0, 2.0, 80.0, 255.0, 192.0, 30.0, 160.0, 0.0, 0.0, 0.0, 1.708991574816994E9, 0.0, 2024-02-26 18:52:54.816
178.0, 187500.0, 187500.0, 187500.0, 187500.0, 187500.0, 187500.0, 48219.37360994502, -186774.10474706945, 0.074, -0.008, 0.98, 192.0, 0.0, 0.0, 0.0, 0.0, 0.0, 0.0, 0.0, 0.0, 0.0, 1.708991574821052E9, 0.0, 2024-02-26 18:52:54.821
179.0, 187500.0, 187500.0, 187500.0, 187500.0, 187500.0, 187500.0, 48224.73802861429, -186775.71407267023, 0.074, -0.008, 0.98, 192.0, 0.0, 0.0, 0.0, 0.0, 0.0, 0.0, 0.0, 0.0, 0.0, 1.708991574824022E9, 0.0, 2024-02-26 18:52:54.824
180.0, 187500.0, 187500.0, 187500.0, 187500.0, 187500.0, 187500.0, 48700.51726108995, -186781.6819884398, 0.074, -0.008, 0.98, 192.0, 0.0, 0.0, 0.0, 0.0, 0.0, 0.0, 0.0, 0.0, 0.0, 1.70899157482801E9, 0.0, 2024-02-26 18:52:54.828
181.0, 187500.0, 187500.0, 187500.0, 187500.0, 187500.0, 187500.0, 48658.89831291417, -186780.5420494726, 0.074, -0.008, 0.98, 192.0, 0.0, 0.0, 0.0, 0.0, 0.0, 0.0, 0.0, 0.0, 0.0, 1.708991574832115E9, 0.0, 2024-02-26 18:52:54.832
182.0, 187500.0, 187500.0, 187500.0, 187500.0, 187500.0, 187500.0, 48299.90694521749, -186773.25538078015, 0.074, -0.008, 0.98, 192.0, 0.0, 0.0, 0.0, 0.0, 0.0, 0.0, 0.0, 0.0, 0.0, 1.708991574836059E9, 0.0, 2024-02-26 18:52:54.836
183.0, 187500.0, 187500.0, 187500.0, 187500.0, 187500.0, 187500.0, 48275.72235771685, -186775.19998254778, 0.074, -0.008, 0.98, 192.0, 0.0, 0.0, 0.0, 0.0, 0.0, 0.0, 0.0, 0.0, 0.0, 1.70899157484105E9, 0.0, 2024-02-26 18:52:54.841
184.0, 187500.0, 187500.0, 187500.0, 187500.0, 187500.0, 187500.0, 48738.53757840843, -186781.32436052852, 0.074, -0.008, 0.98, 192.0, 0.0, 0.0, 0.0, 0.0, 0.0, 0.0, 0.0, 0.0, 0.0, 1.708991574845063E9, 0.0, 2024-02-26 18:52:54.845
185.0, 187500.0, 187500.0, 187500.0, 187500.0, 187500.0, 187500.0, 48854.52078038702, -186783.06779659603, 0.074, -0.008, 0.98, 192.0, 0.0, 0.0, 0.0, 0.0, 0.0, 0.0, 0.0, 0.0, 0.0, 1.708991574848055E9, 0.0, 2024-02-26 18:52:54.848
186.0, 187500.0, 187500.0, 187500.0, 187500.0, 187500.0, 187500.0, 48430.66465028103, -186776.4293284928, 0.068, -0.008, 0.986, 192.0, 2.0, 32.0, 255.0, 192.0, 30.0, 208.0, 0.0, 0.0, 0.0, 1.708991574852041E9, 0.0, 2024-02-26 18:52:54.852
187.0, 187500.0, 187500.0, 187500.0, 187500.0, 187500.0, 187500.0, 48311.70866628989, -186775.17763080331, 0.068, -0.008, 0.986, 192.0, 0.0, 0.0, 0.0, 0.0, 0.0, 0.0, 0.0, 0.0, 0.0, 1.708991574856048E9, 0.0, 2024-02-26 18:52:54.856
188.0, 187500.0, 187500.0, 187500.0, 187500.0, 187500.0, 187500.0, 48653.80211517836, -186780.45264249475, 0.068, -0.008, 0.986, 192.0, 0.0, 0.0, 0.0, 0.0, 0.0, 0.0, 0.0, 0.0, 0.0, 1.708991574860045E9, 0.0, 2024-02-26 18:52:54.860
189.0, 187500.0, 187500.0, 187500.0, 187500.0, 187500.0, 187500.0, 48865.04845202547, -186786.46526175324, 0.068, -0.008, 0.986, 192.0, 0.0, 0.0, 0.0, 0.0, 0.0, 0.0, 0.0, 0.0, 0.0, 1.708991574864056E9, 0.0, 2024-02-26 18:52:54.864
190.0, 187500.0, 187500.0, 187500.0, 187500.0, 187500.0, 187500.0, 48411.732722727385, -186778.32922677152, 0.068, -0.008, 0.986, 192.0, 0.0, 0.0, 0.0, 0.0, 0.0, 0.0, 0.0, 0.0, 0.0, 1.708991574869092E9, 0.0, 2024-02-26 18:52:54.869
191.0, 187500.0, 187500.0, 187500.0, 187500.0, 187500.0, 187500.0, 48225.497987925766, -186776.4293284928, 0.068, -0.008, 0.986, 192.0, 0.0, 0.0, 0.0, 0.0, 0.0, 0.0, 0.0, 0.0, 0.0, 1.708991574873089E9, 0.0, 2024-02-26 18:52:54.873
192.0, 187500.0, 187500.0, 187500.0, 187500.0, 187500.0, 187500.0, 48517.76939842336, -186782.82192740703, 0.068, -0.008, 0.986, 192.0, 0.0, 0.0, 0.0, 0.0, 0.0, 0.0, 0.0, 0.0, 0.0, 1.708991574876092E9, 0.0, 2024-02-26 18:52:54.876
193.0, 187500.0, 187500.0, 187500.0, 187500.0, 187500.0, 187500.0, 48895.31271401796, -186789.90743039935, 0.068, -0.008, 0.986, 192.0, 0.0, 0.0, 0.0, 0.0, 0.0, 0.0, 0.0, 0.0, 0.0, 1.708991574880093E9, 0.0, 2024-02-26 18:52:54.880
194.0, 187500.0, 187500.0, 187500.0, 187500.0, 187500.0, 187500.0, 48524.854901415696, -186780.5867529615, 0.068, -0.008, 0.986, 192.0, 0.0, 0.0, 0.0, 0.0, 0.0, 0.0, 0.0, 0.0, 0.0, 1.708991574884091E9, 0.0, 2024-02-26 18:52:54.884
195.0, 187500.0, 187500.0, 187500.0, 187500.0, 187500.0, 187500.0, 48351.78534409826, -186778.6868546828, 0.068, -0.008, 0.986, 192.0, 0.0, 0.0, 0.0, 0.0, 0.0, 0.0, 0.0, 0.0, 0.0, 1.70899157488809E9, 0.0, 2024-02-26 18:52:54.888
196.0, 187500.0, 187500.0, 187500.0, 187500.0, 187500.0, 187500.0, 48530.48754101843, -186779.42446224982, 0.062, -0.012, 0.984, 192.0, 1.0, 240.0, 255.0, 160.0, 30.0, 192.0, 0.0, 0.0, 0.0, 1.708991574892099E9, 0.0, 2024-02-26 18:52:54.892
197.0, 187500.0, 187500.0, 187500.0, 187500.0, 187500.0, 187500.0, 48992.341636698446, -186786.46526175324, 0.062, -0.012, 0.984, 192.0, 0.0, 0.0, 0.0, 0.0, 0.0, 0.0, 0.0, 0.0, 0.0, 1.708991574897091E9, 0.0, 2024-02-26 18:52:54.897
198.0, 187500.0, 187500.0, 187500.0, 187500.0, 187500.0, 187500.0, 48724.03129625694, -186780.0950145835, 0.062, -0.012, 0.984, 192.0, 0.0, 0.0, 0.0, 0.0, 0.0, 0.0, 0.0, 0.0, 0.0, 1.70899157490009E9, 0.0, 2024-02-26 18:52:54.900
199.0, 187500.0, 187500.0, 187500.0, 187500.0, 187500.0, 187500.0, 48496.87051735765, -186772.36131100194, 0.062, -0.012, 0.984, 192.0, 0.0, 0.0, 0.0, 0.0, 0.0, 0.0, 0.0, 0.0, 0.0, 1.708991574904083E9, 0.0, 2024-02-26 18:52:54.904
200.0, 187500.0, 187500.0, 187500.0, 187500.0, 187500.0, 187500.0, 48641.19573130557, -186776.11640407043, 0.062, -0.012, 0.984, 192.0, 0.0, 0.0, 0.0, 0.0, 0.0, 0.0, 0.0, 0.0, 0.0, 1.708991574908122E9, 0.0, 2024-02-26 18:52:54.908
201.0, 187500.0, 187500.0, 187500.0, 187500.0, 187500.0, 187500.0, 49184.27606633617, -186782.46429949574, 0.062, -0.012, 0.984, 192.0, 0.0, 0.0, 0.0, 0.0, 0.0, 0.0, 0.0, 0.0, 0.0, 1.708991574912121E9, 0.0, 2024-02-26 18:52:54.912
202.0, 187500.0, 187500.0, 187500.0, 187500.0, 187500.0, 187500.0, 49042.096619855954, -186778.15041281588, 0.062, -0.012, 0.984, 192.0, 0.0, 0.0, 0.0, 0.0, 0.0, 0.0, 0.0, 0.0, 0.0, 1.708991574916145E9, 0.0, 2024-02-26 18:52:54.916
203.0, 187500.0, 187500.0, 187500.0, 187500.0, 187500.0, 187500.0, 48728.38988642572, -186773.2777325246, 0.062, -0.012, 0.984, 192.0, 0.0, 0.0, 0.0, 0.0, 0.0, 0.0, 0.0, 0.0, 0.0, 1.708991574920142E9, 0.0, 2024-02-26 18:52:54.920
204.0, 187500.0, 187500.0, 187500.0, 187500.0, 187500.0, 187500.0, 48742.24796798801, -186774.35061625848, 0.062, -0.012, 0.984, 192.0, 0.0, 0.0, 0.0, 0.0, 0.0, 0.0, 0.0, 0.0, 0.0, 1.708991574925134E9, 0.0, 2024-02-26 18:52:54.925
205.0, 187500.0, 187500.0, 187500.0, 187500.0, 187500.0, 187500.0, 49213.243927150244, -186779.4915174832, 0.062, -0.012, 0.984, 192.0, 0.0, 0.0, 0.0, 0.0, 0.0, 0.0, 0.0, 0.0, 0.0, 1.708991574928123E9, 0.0, 2024-02-26 18:52:54.928
206.0, 187500.0, 187500.0, 187500.0, 187500.0, 187500.0, 187500.0, 49193.77555772967, -186778.597447705, 0.066, -0.01, 0.982, 192.0, 2.0, 16.0, 255.0, 176.0, 30.0, 176.0, 0.0, 0.0, 0.0, 1.708991574932118E9, 0.0, 2024-02-26 18:52:54.932
207.0, 187500.0, 187500.0, 187500.0, 187500.0, 187500.0, 187500.0, 48806.91156469722, -186770.55081970108, 0.066, -0.01, 0.982, 192.0, 0.0, 0.0, 0.0, 0.0, 0.0, 0.0, 0.0, 0.0, 0.0, 1.708991574936161E9, 0.0, 2024-02-26 18:52:54.936
208.0, 187500.0, 187500.0, 187500.0, 187500.0, 187500.0, 187500.0, 48758.85531411831, -186769.6343981784, 0.066, -0.01, 0.982, 192.0, 0.0, 0.0, 0.0, 0.0, 0.0, 0.0, 0.0, 0.0, 0.0, 1.708991574940167E9, 0.0, 2024-02-26 18:52:54.940
209.0, 187500.0, 187500.0, 187500.0, 187500.0, 187500.0, 187500.0, 49210.517014326695, -186777.50221222668, 0.066, -0.01, 0.982, 192.0, 0.0, 0.0, 0.0, 0.0, 0.0, 0.0, 0.0, 0.0, 0.0, 1.708991574944179E9, 0.0, 2024-02-26 18:52:54.944
210.0, 187500.0, 187500.0, 187500.0, 187500.0, 187500.0, 187500.0, 49384.525344911264, -186776.585790704, 0.066, -0.01, 0.982, 192.0, 0.0, 0.0, 0.0, 0.0, 0.0, 0.0, 0.0, 0.0, 0.0, 1.708991574948172E9, 0.0, 2024-02-26 18:52:54.948
211.0, 187500.0, 187500.0, 187500.0, 187500.0, 187500.0, 187500.0, 49025.891605125864, -186768.89679061138, 0.066, -0.01, 0.982, 192.0, 0.0, 0.0, 0.0, 0.0, 0.0, 0.0, 0.0, 0.0, 0.0, 1.708991574952172E9, 0.0, 2024-02-26 18:52:54.952
212.0, 187500.0, 187500.0, 187500.0, 187500.0, 187500.0, 187500.0, 48954.20956065769, -186766.61691267692, 0.066, -0.01, 0.982, 192.0, 0.0, 0.0, 0.0, 0.0, 0.0, 0.0, 0.0, 0.0, 0.0, 1.708991574956179E9, 0.0, 2024-02-26 18:52:54.956
213.0, 187500.0, 187500.0, 187500.0, 187500.0, 187500.0, 187500.0, 49339.06189668917, -186771.22137203472, 0.066, -0.01, 0.982, 192.0, 0.0, 0.0, 0.0, 0.0, 0.0, 0.0, 0.0, 0.0, 0.0, 1.708991574959176E9, 0.0, 2024-02-26 18:52:54.959
214.0, 187500.0, 187500.0, 187500.0, 187500.0, 187500.0, 187500.0, 49670.53826696137, -186777.1445843154, 0.066, -0.01, 0.982, 192.0, 0.0, 0.0, 0.0, 0.0, 0.0, 0.0, 0.0, 0.0, 0.0, 1.708991574964177E9, 0.0, 2024-02-26 18:52:54.964
215.0, 187500.0, 187500.0, 187500.0, 187500.0, 187500.0, 187500.0, 49319.5935272686, -186771.15431680137, 0.066, -0.01, 0.982, 192.0, 0.0, 0.0, 0.0, 0.0, 0.0, 0.0, 0.0, 0.0, 0.0, 1.708991574968185E9, 0.0, 2024-02-26 18:52:54.968
216.0, 187500.0, 187500.0, 187500.0, 187500.0, 187500.0, 187500.0, 49203.99030494575, -186766.5275056991, 0.074, -0.01, 0.984, 192.0, 2.0, 80.0, 255.0, 176.0, 30.0, 192.0, 0.0, 0.0, 0.0, 1.708991574972176E9, 0.0, 2024-02-26 18:52:54.972
217.0, 187500.0, 187500.0, 187500.0, 187500.0, 187500.0, 187500.0, 49516.11006451966, -186770.41670923433, 0.074, -0.01, 0.984, 192.0, 0.0, 0.0, 0.0, 0.0, 0.0, 0.0, 0.0, 0.0, 0.0, 1.708991574976176E9, 0.0, 2024-02-26 18:52:54.976
218.0, 187500.0, 187500.0, 187500.0, 187500.0, 187500.0, 187500.0, 49929.79615089848, -186774.75294765868, 0.074, -0.01, 0.984, 192.0, 0.0, 0.0, 0.0, 0.0, 0.0, 0.0, 0.0, 0.0, 0.0, 1.70899157498024E9, 0.0, 2024-02-26 18:52:54.980
219.0, 187500.0, 187500.0, 187500.0, 187500.0, 187500.0, 187500.0, 49597.00102770341, -186770.90844761234, 0.074, -0.01, 0.984, 192.0, 0.0, 0.0, 0.0, 0.0, 0.0, 0.0, 0.0, 0.0, 0.0, 1.708991574984218E9, 0.0, 2024-02-26 18:52:54.984
220.0, 187500.0, 187500.0, 187500.0, 187500.0, 187500.0, 187500.0, 49392.61667640408, -186769.3438255005, 0.074, -0.01, 0.984, 192.0, 0.0, 0.0, 0.0, 0.0, 0.0, 0.0, 0.0, 0.0, 0.0, 1.708991574987213E9, 0.0, 2024-02-26 18:52:54.987
221.0, 187500.0, 187500.0, 187500.0, 187500.0, 187500.0, 187500.0, 49560.16535284107, -186770.37200574542, 0.074, -0.01, 0.984, 192.0, 0.0, 0.0, 0.0, 0.0, 0.0, 0.0, 0.0, 0.0, 0.0, 1.708991574992213E9, 0.0, 2024-02-26 18:52:54.992
222.0, 187500.0, 187500.0, 187500.0, 187500.0, 187500.0, 187500.0, 50040.16906501878, -186777.12223257092, 0.074, -0.01, 0.984, 192.0, 0.0, 0.0, 0.0, 0.0, 0.0, 0.0, 0.0, 0.0, 0.0, 1.708991574996229E9, 0.0, 2024-02-26 18:52:54.996
223.0, 187500.0, 187500.0, 187500.0, 187500.0, 187500.0, 187500.0, 49806.973315116564, -186773.9929883472, 0.074, -0.01, 0.984, 192.0, 0.0, 0.0, 0.0, 0.0, 0.0, 0.0, 0.0, 0.0, 0.0, 1.708991575000228E9, 0.0, 2024-02-26 18:52:55.000
224.0, 187500.0, 187500.0, 187500.0, 187500.0, 187500.0, 187500.0, 49557.30432955079, -186767.55568594407, 0.074, -0.01, 0.984, 192.0, 0.0, 0.0, 0.0, 0.0, 0.0, 0.0, 0.0, 0.0, 0.0, 1.708991575004244E9, 0.0, 2024-02-26 18:52:55.004
225.0, 187500.0, 187500.0, 187500.0, 187500.0, 187500.0, 187500.0, 49668.3254442603, -186769.8802673674, 0.074, -0.01, 0.984, 192.0, 0.0, 0.0, 0.0, 0.0, 0.0, 0.0, 0.0, 0.0, 0.0, 1.708991575008221E9, 0.0, 2024-02-26 18:52:55.008
226.0, 187500.0, 187500.0, 187500.0, 187500.0, 187500.0, 187500.0, 50199.06761635156, -186779.35740701645, 0.068, -0.012, 0.98, 192.0, 2.0, 32.0, 255.0, 160.0, 30.0, 160.0, 0.0, 0.0, 0.0, 1.708991575012234E9, 0.0, 2024-02-26 18:52:55.012
227.0, 187500.0, 187500.0, 187500.0, 187500.0, 187500.0, 187500.0, 50081.05040562754, -186774.9317616143, 0.068, -0.012, 0.98, 192.0, 0.0, 0.0, 0.0, 0.0, 0.0, 0.0, 0.0, 0.0, 0.0, 1.708991575015239E9, 0.0, 2024-02-26 18:52:55.015
228.0, 187500.0, 187500.0, 187500.0, 187500.0, 187500.0, 187500.0, 49745.14838995319, -186767.01924407712, 0.068, -0.012, 0.98, 192.0, 0.0, 0.0, 0.0, 0.0, 0.0, 0.0, 0.0, 0.0, 0.0, 1.708991575020224E9, 0.0, 2024-02-26 18:52:55.020
229.0, 187500.0, 187500.0, 187500.0, 187500.0, 187500.0, 187500.0, 49757.10657323678, -186767.75685164417, 0.068, -0.012, 0.98, 192.0, 0.0, 0.0, 0.0, 0.0, 0.0, 0.0, 0.0, 0.0, 0.0, 1.708991575024214E9, 0.0, 2024-02-26 18:52:55.024
230.0, 187500.0, 187500.0, 187500.0, 187500.0, 187500.0, 187500.0, 50233.62341327946, -186776.02699709262, 0.068, -0.012, 0.98, 192.0, 0.0, 0.0, 0.0, 0.0, 0.0, 0.0, 0.0, 0.0, 0.0, 1.708991575028249E9, 0.0, 2024-02-26 18:52:55.028
231.0, 187500.0, 187500.0, 187500.0, 187500.0, 187500.0, 187500.0, 50246.609776808, -186776.92106687083, 0.068, -0.012, 0.98, 192.0, 0.0, 0.0, 0.0, 0.0, 0.0, 0.0, 0.0, 0.0, 0.0, 1.70899157503225E9, 0.0, 2024-02-26 18:52:55.032
232.0, 187500.0, 187500.0, 187500.0, 187500.0, 187500.0, 187500.0, 49860.77396402049, -186769.6791016673, 0.068, -0.012, 0.98, 192.0, 0.0, 0.0, 0.0, 0.0, 0.0, 0.0, 0.0, 0.0, 0.0, 1.708991575035342E9, 0.0, 2024-02-26 18:52:55.035
233.0, 187500.0, 187500.0, 187500.0, 187500.0, 187500.0, 187500.0, 49782.76637587147, -186769.3885289894, 0.068, -0.012, 0.98, 192.0, 0.0, 0.0, 0.0, 0.0, 0.0, 0.0, 0.0, 0.0, 0.0, 1.708991575039271E9, 0.0, 2024-02-26 18:52:55.039
234.0, 187500.0, 187500.0, 187500.0, 187500.0, 187500.0, 187500.0, 50205.84019492152, -186775.7364244147, 0.068, -0.012, 0.98, 192.0, 0.0, 0.0, 0.0, 0.0, 0.0, 0.0, 0.0, 0.0, 0.0, 1.708991575043272E9, 0.0, 2024-02-26 18:52:55.043
235.0, 187500.0, 187500.0, 187500.0, 187500.0, 187500.0, 187500.0, 50406.804729319185, -186776.96577035973, 0.068, -0.012, 0.98, 192.0, 0.0, 0.0, 0.0, 0.0, 0.0, 0.0, 0.0, 0.0, 0.0, 1.708991575048256E9, 0.0, 2024-02-26 18:52:55.048
236.0, 187500.0, 187500.0, 187500.0, 187500.0, 187500.0, 187500.0, 50051.30023375753, -186769.74615690068, 0.07, -0.014, 0.978, 192.0, 2.0, 48.0, 255.0, 144.0, 30.0, 144.0, 0.0, 0.0, 0.0, 1.708991575052249E9, 0.0, 2024-02-26 18:52:55.052
237.0, 187500.0, 187500.0, 187500.0, 187500.0, 187500.0, 187500.0, 49986.01078820357, -186765.6334359209, 0.07, -0.014, 0.978, 192.0, 0.0, 0.0, 0.0, 0.0, 0.0, 0.0, 0.0, 0.0, 0.0, 1.70899157505627E9, 0.0, 2024-02-26 18:52:55.056
238.0, 187500.0, 187500.0, 187500.0, 187500.0, 187500.0, 187500.0, 50387.96220874336, -186772.67423542432, 0.07, -0.014, 0.978, 192.0, 0.0, 0.0, 0.0, 0.0, 0.0, 0.0, 0.0, 0.0, 0.0, 1.708991575060269E9, 0.0, 2024-02-26 18:52:55.060
239.0, 187500.0, 187500.0, 187500.0, 187500.0, 187500.0, 187500.0, 50739.35398332524, -186775.60231394798, 0.07, -0.014, 0.978, 192.0, 0.0, 0.0, 0.0, 0.0, 0.0, 0.0, 0.0, 0.0, 0.0, 1.708991575063295E9, 0.0, 2024-02-26 18:52:55.063
240.0, 187500.0, 187500.0, 187500.0, 187500.0, 187500.0, 187500.0, 50391.62789483403, -186770.0367295786, 0.07, -0.014, 0.978, 192.0, 0.0, 0.0, 0.0, 0.0, 0.0, 0.0, 0.0, 0.0, 0.0, 1.708991575067279E9, 0.0, 2024-02-26 18:52:55.067
241.0, 187500.0, 187500.0, 187500.0, 187500.0, 187500.0, 187500.0, 50270.12381197498, -186765.6334359209, 0.07, -0.014, 0.978, 192.0, 0.0, 0.0, 0.0, 0.0, 0.0, 0.0, 0.0, 0.0, 0.0, 1.708991575071286E9, 0.0, 2024-02-26 18:52:55.071
242.0, 187500.0, 187500.0, 187500.0, 187500.0, 187500.0, 187500.0, 50548.514789165834, -186767.1310027994, 0.07, -0.014, 0.978, 192.0, 0.0, 0.0, 0.0, 0.0, 0.0, 0.0, 0.0, 0.0, 0.0, 1.708991575075288E9, 0.0, 2024-02-26 18:52:55.075
243.0, 187500.0, 187500.0, 187500.0, 187500.0, 187500.0, 187500.0, 51013.1405011583, -186772.89775286888, 0.07, -0.014, 0.978, 192.0, 0.0, 0.0, 0.0, 0.0, 0.0, 0.0, 0.0, 0.0, 0.0, 1.708991575080319E9, 0.0, 2024-02-26 18:52:55.080
244.0, 187500.0, 187500.0, 187500.0, 187500.0, 187500.0, 187500.0, 50705.28992477536, -186763.7335376422, 0.07, -0.014, 0.978, 192.0, 0.0, 0.0, 0.0, 0.0, 0.0, 0.0, 0.0, 0.0, 0.0, 1.708991575084306E9, 0.0, 2024-02-26 18:52:55.084
245.0, 187500.0, 187500.0, 187500.0, 187500.0, 187500.0, 187500.0, 50488.63446577007, -186759.4196509623, 0.07, -0.014, 0.978, 192.0, 0.0, 0.0, 0.0, 0.0, 0.0, 0.0, 0.0, 0.0, 0.0, 1.708991575088307E9, 0.0, 2024-02-26 18:52:55.088
246.0, 187500.0, 187500.0, 187500.0, 187500.0, 187500.0, 187500.0, 50651.69044157153, -186761.20779051876, 0.068, -0.01, 0.984, 192.0, 2.0, 32.0, 255.0, 176.0, 30.0, 192.0, 0.0, 0.0, 0.0, 1.708991575091316E9, 0.0, 2024-02-26 18:52:55.091
247.0, 187500.0, 187500.0, 187500.0, 187500.0, 187500.0, 187500.0, 51146.26749113411, -186771.10961331244, 0.068, -0.01, 0.984, 192.0, 0.0, 0.0, 0.0, 0.0, 0.0, 0.0, 0.0, 0.0, 0.0, 1.708991575095309E9, 0.0, 2024-02-26 18:52:55.095
248.0, 187500.0, 187500.0, 187500.0, 187500.0, 187500.0, 187500.0, 50912.08826447586, -186768.06977606652, 0.068, -0.01, 0.984, 192.0, 0.0, 0.0, 0.0, 0.0, 0.0, 0.0, 0.0, 0.0, 0.0, 1.708991575099323E9, 0.0, 2024-02-26 18:52:55.099
249.0, 187500.0, 187500.0, 187500.0, 187500.0, 187500.0, 187500.0, 50613.91599344206, -186760.581941674, 0.068, -0.01, 0.984, 192.0, 0.0, 0.0, 0.0, 0.0, 0.0, 0.0, 0.0, 0.0, 0.0, 1.70899157510429E9, 0.0, 2024-02-26 18:52:55.104
250.0, 187500.0, 187500.0, 187500.0, 187500.0, 187500.0, 187500.0, 50681.44061344154, -186763.21944751972, 0.068, -0.01, 0.984, 192.0, 0.0, 0.0, 0.0, 0.0, 0.0, 0.0, 0.0, 0.0, 0.0, 1.708991575108295E9, 0.0, 2024-02-26 18:52:55.108
251.0, 187500.0, 187500.0, 187500.0, 187500.0, 187500.0, 187500.0, 51172.93312226929, -186769.6343981784, 0.068, -0.01, 0.984, 192.0, 0.0, 0.0, 0.0, 0.0, 0.0, 0.0, 0.0, 0.0, 0.0, 1.708991575112334E9, 0.0, 2024-02-26 18:52:55.112
252.0, 187500.0, 187500.0, 187500.0, 187500.0, 187500.0, 187500.0, 51097.719502177184, -186762.4371364638, 0.068, -0.01, 0.984, 192.0, 0.0, 0.0, 0.0, 0.0, 0.0, 0.0, 0.0, 0.0, 0.0, 1.708991575116334E9, 0.0, 2024-02-26 18:52:55.116
253.0, 187500.0, 187500.0, 187500.0, 187500.0, 187500.0, 187500.0, 50775.943788998586, -186757.00566256116, 0.068, -0.01, 0.984, 192.0, 0.0, 0.0, 0.0, 0.0, 0.0, 0.0, 0.0, 0.0, 0.0, 1.708991575119308E9, 0.0, 2024-02-26 18:52:55.119
254.0, 187500.0, 187500.0, 187500.0, 187500.0, 187500.0, 187500.0, 50791.74647232849, -186756.91625558332, 0.068, -0.01, 0.984, 192.0, 0.0, 0.0, 0.0, 0.0, 0.0, 0.0, 0.0, 0.0, 0.0, 1.708991575123319E9, 0.0, 2024-02-26 18:52:55.123
255.0, 187500.0, 187500.0, 187500.0, 187500.0, 187500.0, 187500.0, 51285.988245724235, -186765.0299388206, 0.068, -0.01, 0.984, 192.0, 0.0, 0.0, 0.0, 0.0, 0.0, 0.0, 0.0, 0.0, 0.0, 1.708991575127319E9, 0.0, 2024-02-26 18:52:55.127
