%OpenBCI Raw EXG Data
%Number of channels = 8
%Sample Rate = 250 Hz
%Board = OpenBCI_GUI$BoardCytonSerial
Sample Index, EXG Channel 0, EXG Channel 1, EXG Channel 2, EXG Channel 3, EXG Channel 4, EXG Channel 5, EXG Channel 6, EXG Channel 7, Accel Channel 0, Accel Channel 1, Accel Channel 2, Other, Other, Other, Other, Other, Other, Other, Analog Channel 0, Analog Channel 1, Analog Channel 2, Timestamp, Other, Timestamp (Formatted)
57.0, 187500.0, 187500.0, 187500.0, -182326.19700744117, 187500.0, 15896.203028703098, -182000.84501514974, -181986.00345683141, 0.0, 0.0, 0.0, 192.0, 0.0, 0.0, 0.0, 0.0, 0.0, 0.0, 0.0, 0.0, 0.0, 1.70899112769539E9, 0.0, 2024-02-26 18:45:27.695
58.0, 187500.0, 187500.0, 187500.0, -182393.36399952936, 187500.0, 16367.578967521069, -182079.0761207433, -182062.58053333528, 0.0, 0.0, 0.0, 192.0, 0.0, 0.0, 0.0, 0.0, 0.0, 0.0, 0.0, 0.0, 0.0, 1.70899112769544E9, 0.0, 2024-02-26 18:45:27.695
59.0, 187500.0, 187500.0, 187500.0, -182216.49464565454, 187500.0, 15470.737572996328, -181961.08126176373, -181934.5944445842, 0.0, 0.0, 0.0, 192.0, 0.0, 0.0, 0.0, 0.0, 0.0, 0.0, 0.0, 0.0, 0.0, 1.708991127695469E9, 0.0, 2024-02-26 18:45:27.695
0.0, 0.0, 0.0, 0.0, 0.0, 0.0, 0.0, 0.0, 0.0, 0.0, 0.0, 0.0, 192.0, 0.0, 0.0, 0.0, 0.0, 0.0, 0.0, 0.0, 0.0, 0.0, 1.70899112775728E9, 0.0, 2024-02-26 18:45:27.757
1.0, 187500.0, 187500.0, 187500.0, -182032.4280300651, 187500.0, 16638.504462063847, -181904.06196165824, -181881.419644525, 0.056, 0.01, 0.978, 192.0, 1.0, 192.0, 0.0, 80.0, 30.0, 144.0, 0.0, 0.0, 0.0, 1.708991127773277E9, 0.0, 2024-02-26 18:45:27.773
2.0, 187500.0, 187500.0, 187500.0, -182174.4063108452, 187500.0, 17567.465313370863, -182051.53877157436, -182030.0587451528, 0.056, 0.01, 0.978, 192.0, 0.0, 0.0, 0.0, 0.0, 0.0, 0.0, 0.0, 0.0, 0.0, 1.708991127777291E9, 0.0, 2024-02-26 18:45:27.777
3.0, 187500.0, 187500.0, 187500.0, -182152.993339657, 187500.0, 17436.43938737385, -182037.09954465623, -182013.74197170045, 0.056, 0.01, 0.978, 192.0, 0.0, 0.0, 0.0, 0.0, 0.0, 0.0, 0.0, 0.0, 0.0, 1.708991127780279E9, 0.0, 2024-02-26 18:45:27.780
4.0, 187500.0, 187500.0, 187500.0, -182020.38043980367, 187500.0, 16495.565056272157, -181909.51578730534, -181884.4818335154, 0.056, 0.01, 0.978, 192.0, 0.0, 0.0, 0.0, 0.0, 0.0, 0.0, 0.0, 0.0, 0.0, 1.708991127785281E9, 0.0, 2024-02-26 18:45:27.785
5.0, 187500.0, 187500.0, 187500.0, -182026.3707073177, 187500.0, 16409.399081396947, -181923.57503456774, -181898.1834528665, 0.056, 0.01, 0.978, 192.0, 0.0, 0.0, 0.0, 0.0, 0.0, 0.0, 0.0, 0.0, 0.0, 1.708991127788271E9, 0.0, 2024-02-26 18:45:27.788
6.0, 187500.0, 187500.0, 187500.0, -182176.88735447972, 187500.0, 17225.416567971297, -182085.0663882573, -182058.69132980006, 0.056, 0.01, 0.978, 192.0, 0.0, 0.0, 0.0, 0.0, 0.0, 0.0, 0.0, 0.0, 0.0, 1.708991127791301E9, 0.0, 2024-02-26 18:45:27.791
7.0, 187500.0, 187500.0, 187500.0, -182221.32262245688, 187500.0, 17414.311160363097, -182138.39765052768, -182111.37439148122, 0.056, 0.01, 0.978, 192.0, 0.0, 0.0, 0.0, 0.0, 0.0, 0.0, 0.0, 0.0, 0.0, 1.708991127796291E9, 0.0, 2024-02-26 18:45:27.796
8.0, 187500.0, 187500.0, 187500.0, -182078.964362021, 187500.0, 16440.177433511904, -182001.09088433874, -181971.94420956902, 0.054, 0.016, 0.976, 192.0, 1.0, 176.0, 0.0, 128.0, 30.0, 128.0, 0.0, 0.0, 0.0, 1.708991127800288E9, 0.0, 2024-02-26 18:45:27.800
9.0, 187500.0, 187500.0, 187500.0, -182056.09852744325, 187500.0, 16239.950506681265, -181984.93057309755, -181955.06864250527, 0.054, 0.016, 0.976, 192.0, 0.0, 0.0, 0.0, 0.0, 0.0, 0.0, 0.0, 0.0, 0.0, 1.70899112780429E9, 0.0, 2024-02-26 18:45:27.804
10.0, 187500.0, 187500.0, 187500.0, -182184.17402317215, 187500.0, 16951.29477397141, -182123.60079569826, -182092.6883331166, 0.054, 0.016, 0.976, 192.0, 0.0, 0.0, 0.0, 0.0, 0.0, 0.0, 0.0, 0.0, 0.0, 1.708991127808335E9, 0.0, 2024-02-26 18:45:27.808
11.0, 187500.0, 187500.0, 187500.0, -182265.98140787857, 187500.0, 17438.652210074928, -182214.37122993128, -182183.36936037175, 0.054, 0.016, 0.976, 192.0, 0.0, 0.0, 0.0, 0.0, 0.0, 0.0, 0.0, 0.0, 0.0, 1.708991127813332E9, 0.0, 2024-02-26 18:45:27.813
12.0, 187500.0, 187500.0, 187500.0, -182115.0847810608, 187500.0, 16514.094652425607, -182067.2743996709, -182034.3726318327, 0.054, 0.016, 0.976, 192.0, 0.0, 0.0, 0.0, 0.0, 0.0, 0.0, 0.0, 0.0, 0.0, 1.708991127816336E9, 0.0, 2024-02-26 18:45:27.816
13.0, 187500.0, 187500.0, 187500.0, -182069.0178357384, 187500.0, 16178.706726873725, -182027.80121896282, -181993.46893947947, 0.054, 0.016, 0.976, 192.0, 0.0, 0.0, 0.0, 0.0, 0.0, 0.0, 0.0, 0.0, 0.0, 1.708991127820347E9, 0.0, 2024-02-26 18:45:27.820
14.0, 187500.0, 187500.0, 187500.0, -182148.70180472158, 187500.0, 16741.590707491723, -182116.58234793931, -182082.00419926696, 0.054, 0.016, 0.976, 192.0, 0.0, 0.0, 0.0, 0.0, 0.0, 0.0, 0.0, 0.0, 0.0, 1.708991127824353E9, 0.0, 2024-02-26 18:45:27.824
15.0, 187500.0, 187500.0, 187500.0, -182243.54025644544, 187500.0, 17480.78524837318, -182220.78618058996, -182186.07392145085, 0.054, 0.016, 0.976, 192.0, 0.0, 0.0, 0.0, 0.0, 0.0, 0.0, 0.0, 0.0, 0.0, 1.708991127828329E9, 0.0, 2024-02-26 18:45:27.828
16.0, 187500.0, 187500.0, 187500.0, -182110.32385949182, 187500.0, 16690.69578536699, -182092.26364997192, -182055.18210592057, 0.054, 0.016, 0.976, 192.0, 0.0, 0.0, 0.0, 0.0, 0.0, 0.0, 0.0, 0.0, 0.0, 1.708991127832357E9, 0.0, 2024-02-26 18:45:27.832
17.0, 187500.0, 187500.0, 187500.0, -182013.6525647226, 187500.0, 16180.338404218961, -182001.1579395721, -181962.46706991998, 0.054, 0.016, 0.976, 192.0, 0.0, 0.0, 0.0, 0.0, 0.0, 0.0, 0.0, 0.0, 0.0, 1.708991127836347E9, 0.0, 2024-02-26 18:45:27.836
18.0, 187500.0, 187500.0, 187500.0, -182068.39198689366, 187500.0, 16589.531789962268, -182063.9216380026, -182025.74485847293, 0.058, 0.01, 0.978, 192.0, 1.0, 208.0, 0.0, 80.0, 30.0, 144.0, 0.0, 0.0, 0.0, 1.708991127840341E9, 0.0, 2024-02-26 18:45:27.840
19.0, 187500.0, 187500.0, 187500.0, -182200.37903790225, 187500.0, 17484.182713530387, -182205.94462227164, -182167.9913601865, 0.058, 0.01, 0.978, 192.0, 0.0, 0.0, 0.0, 0.0, 0.0, 0.0, 0.0, 0.0, 0.0, 1.708991127844337E9, 0.0, 2024-02-26 18:45:27.844
20.0, 187500.0, 187500.0, 187500.0, -182098.6338971417, 187500.0, 16889.782773230407, -182110.1897490251, -182069.73309156098, 0.058, 0.01, 0.978, 192.0, 0.0, 0.0, 0.0, 0.0, 0.0, 0.0, 0.0, 0.0, 0.0, 1.708991127847348E9, 0.0, 2024-02-26 18:45:27.847
21.0, 187500.0, 187500.0, 187500.0, -181979.23087826144, 187500.0, 16206.44524174276, -181996.48642498095, -181954.12986923812, 0.058, 0.01, 0.978, 192.0, 0.0, 0.0, 0.0, 0.0, 0.0, 0.0, 0.0, 0.0, 0.0, 1.708991127852393E9, 0.0, 2024-02-26 18:45:27.852
22.0, 187500.0, 187500.0, 187500.0, -182014.88191066767, 187500.0, 16442.904346335454, -182039.93821620205, -181997.3581430147, 0.058, 0.01, 0.978, 192.0, 0.0, 0.0, 0.0, 0.0, 0.0, 0.0, 0.0, 0.0, 0.0, 1.70899112785639E9, 0.0, 2024-02-26 18:45:27.856
23.0, 187500.0, 187500.0, 187500.0, -182162.8504589618, 187500.0, 17378.503665745695, -182199.14969195722, -182156.6366740032, 0.058, 0.01, 0.978, 192.0, 0.0, 0.0, 0.0, 0.0, 0.0, 0.0, 0.0, 0.0, 0.0, 1.708991127860379E9, 0.0, 2024-02-26 18:45:27.860
24.0, 187500.0, 187500.0, 187500.0, -182110.50267344745, 187500.0, 17037.41604535771, -182153.01569140147, -182109.76506588043, 0.058, 0.01, 0.978, 192.0, 0.0, 0.0, 0.0, 0.0, 0.0, 0.0, 0.0, 0.0, 0.0, 1.708991127864402E9, 0.0, 2024-02-26 18:45:27.864
25.0, 187500.0, 187500.0, 187500.0, -181970.3125322238, 187500.0, 16190.463744457216, -182016.87121592418, -181972.57005841375, 0.058, 0.01, 0.978, 192.0, 0.0, 0.0, 0.0, 0.0, 0.0, 0.0, 0.0, 0.0, 0.0, 1.708991127867378E9, 0.0, 2024-02-26 18:45:27.867
26.0, 187500.0, 187500.0, 187500.0, -181979.23087826144, 187500.0, 16251.416951586838, -182032.964471932, -181988.05981732128, 0.058, 0.01, 0.978, 192.0, 0.0, 0.0, 0.0, 0.0, 0.0, 0.0, 0.0, 0.0, 0.0, 1.70899112787139E9, 0.0, 2024-02-26 18:45:27.871
27.0, 187500.0, 187500.0, 187500.0, -182119.82335088533, 187500.0, 17146.313744343966, -182184.37518887225, -182139.5375894949, 0.056, 0.006, 0.978, 192.0, 1.0, 192.0, 0.0, 48.0, 30.0, 144.0, 0.0, 0.0, 0.0, 1.708991127875385E9, 0.0, 2024-02-26 18:45:27.875
28.0, 187500.0, 187500.0, 187500.0, -182101.04788554288, 187500.0, 17101.789069388997, -182172.28289512193, -182126.61828119974, 0.056, 0.006, 0.978, 192.0, 0.0, 0.0, 0.0, 0.0, 0.0, 0.0, 0.0, 0.0, 0.0, 1.708991127879393E9, 0.0, 2024-02-26 18:45:27.879
29.0, 187500.0, 187500.0, 187500.0, -181926.50311309137, 187500.0, 16165.854473811922, -182002.52139598387, -181953.97340702696, 0.056, 0.006, 0.978, 192.0, 0.0, 0.0, 0.0, 0.0, 0.0, 0.0, 0.0, 0.0, 0.0, 1.708991127884396E9, 0.0, 2024-02-26 18:45:27.884
30.0, 187500.0, 187500.0, 187500.0, -181888.66160972853, 187500.0, 16095.602940988892, -181972.12302352465, -181922.30098513377, 0.056, 0.006, 0.978, 192.0, 0.0, 0.0, 0.0, 0.0, 0.0, 0.0, 0.0, 0.0, 0.0, 1.708991127888379E9, 0.0, 2024-02-26 18:45:27.888
31.0, 187500.0, 187500.0, 187500.0, -181990.40675048908, 187500.0, 16916.694273554596, -182083.59117312328, -182033.65737601012, 0.056, 0.006, 0.978, 192.0, 0.0, 0.0, 0.0, 0.0, 0.0, 0.0, 0.0, 0.0, 0.0, 1.708991127892382E9, 0.0, 2024-02-26 18:45:27.892
32.0, 187500.0, 187500.0, 187500.0, -181989.93736385554, 187500.0, 17215.492393433142, -182114.66009791614, -182067.0732339708, 0.056, 0.006, 0.978, 192.0, 0.0, 0.0, 0.0, 0.0, 0.0, 0.0, 0.0, 0.0, 0.0, 1.708991127896377E9, 0.0, 2024-02-26 18:45:27.896
33.0, 187500.0, 187500.0, 187500.0, -181676.74472054778, 187500.0, 16273.299309408583, -181954.3533866827, -181927.08425844723, 0.056, 0.006, 0.978, 192.0, 0.0, 0.0, 0.0, 0.0, 0.0, 0.0, 0.0, 0.0, 0.0, 1.708991127899433E9, 0.0, 2024-02-26 18:45:27.899
34.0, 187500.0, 187500.0, 187500.0, -181762.0613291337, 187500.0, 16046.853786331867, -181903.86079595814, -181877.23986831188, 0.056, 0.006, 0.978, 192.0, 0.0, 0.0, 0.0, 0.0, 0.0, 0.0, 0.0, 0.0, 0.0, 1.708991127903426E9, 0.0, 2024-02-26 18:45:27.903
35.0, 187500.0, 187500.0, 187500.0, -182239.20401802112, 187500.0, 16688.88529406611, -181971.83245084673, -181945.3009301783, 0.056, 0.006, 0.978, 192.0, 0.0, 0.0, 0.0, 0.0, 0.0, 0.0, 0.0, 0.0, 0.0, 1.708991127908425E9, 0.0, 2024-02-26 18:45:27.908
36.0, 187500.0, 187500.0, 187500.0, -182602.37516193095, 187500.0, 17212.765480609596, -182050.24237039595, -182020.38043980367, 0.056, 0.006, 0.978, 192.0, 0.0, 0.0, 0.0, 0.0, 0.0, 0.0, 0.0, 0.0, 0.0, 1.708991127912418E9, 0.0, 2024-02-26 18:45:27.912
37.0, 187500.0, 187500.0, 187500.0, -182433.8653604824, 187500.0, 16311.140812771418, -181980.4602242065, -181922.72566827844, 0.06, 0.01, 0.978, 192.0, 1.0, 224.0, 0.0, 80.0, 30.0, 144.0, 0.0, 0.0, 0.0, 1.708991127916424E9, 0.0, 2024-02-26 18:45:27.916
38.0, 187500.0, 187500.0, 187500.0, -182307.9356322212, 187500.0, 15951.34478227434, -181917.42830484253, -181885.6217724826, 0.06, 0.01, 0.978, 192.0, 0.0, 0.0, 0.0, 0.0, 0.0, 0.0, 0.0, 0.0, 0.0, 1.708991127920413E9, 0.0, 2024-02-26 18:45:27.920
39.0, 187500.0, 187500.0, 187500.0, -182333.21545520014, 187500.0, 16533.674780568457, -181927.08425844723, -181909.96282219444, 0.06, 0.01, 0.978, 192.0, 0.0, 0.0, 0.0, 0.0, 0.0, 0.0, 0.0, 0.0, 0.0, 1.708991127923414E9, 0.0, 2024-02-26 18:45:27.923
40.0, 187500.0, 187500.0, 187500.0, -182411.26774683807, 187500.0, 17398.933160177847, -182014.72544845648, -181994.0053813464, 0.06, 0.01, 0.978, 192.0, 0.0, 0.0, 0.0, 0.0, 0.0, 0.0, 0.0, 0.0, 0.0, 1.708991127927412E9, 0.0, 2024-02-26 18:45:27.927
41.0, 187500.0, 187500.0, 187500.0, -182234.0184133075, 187500.0, 16701.469326194445, -181962.66823562008, -181896.79764471028, 0.06, 0.01, 0.978, 192.0, 0.0, 0.0, 0.0, 0.0, 0.0, 0.0, 0.0, 0.0, 0.0, 1.70899112793146E9, 0.0, 2024-02-26 18:45:27.931
42.0, 187500.0, 187500.0, 187500.0, -182071.4765276285, 187500.0, 16175.465723927704, -181937.6342818301, -181856.83272562418, 0.06, 0.01, 0.978, 192.0, 0.0, 0.0, 0.0, 0.0, 0.0, 0.0, 0.0, 0.0, 0.0, 1.708991127935458E9, 0.0, 2024-02-26 18:45:27.935
43.0, 187500.0, 187500.0, 187500.0, -182099.0362285419, 187500.0, 16553.03139126675, -181927.48658984742, -181890.27093532932, 0.06, 0.01, 0.978, 192.0, 0.0, 0.0, 0.0, 0.0, 0.0, 0.0, 0.0, 0.0, 0.0, 1.708991127940493E9, 0.0, 2024-02-26 18:45:27.940
44.0, 187500.0, 187500.0, 187500.0, -182219.64624162272, 187500.0, 17454.49959689374, -182047.98484420596, -182008.0646286088, 0.06, 0.01, 0.978, 192.0, 0.0, 0.0, 0.0, 0.0, 0.0, 0.0, 0.0, 0.0, 0.0, 1.708991127944476E9, 0.0, 2024-02-26 18:45:27.944
45.0, 187500.0, 187500.0, 187500.0, -182103.26070824394, 187500.0, 16910.413433362657, -181972.1006717802, -181936.56139809627, 0.06, 0.01, 0.978, 192.0, 0.0, 0.0, 0.0, 0.0, 0.0, 0.0, 0.0, 0.0, 0.0, 1.70899112795048E9, 0.0, 2024-02-26 18:45:27.950
46.0, 187500.0, 187500.0, 187500.0, -181941.65759583208, 187500.0, 16189.815543868011, -181899.0328191558, -181873.39536826557, 0.06, 0.01, 0.978, 192.0, 0.0, 0.0, 0.0, 0.0, 0.0, 0.0, 0.0, 0.0, 0.0, 1.708991127953459E9, 0.0, 2024-02-26 18:45:27.953
47.0, 187500.0, 187500.0, 187500.0, -181941.2999679208, 187500.0, 16411.14251746446, -181883.923039904, -181871.33900777568, 0.054, 0.018000000000000002, 0.98, 192.0, 1.0, 176.0, 0.0, 144.0, 30.0, 160.0, 0.0, 0.0, 0.0, 1.708991127956481E9, 0.0, 2024-02-26 18:45:27.956
48.0, 187500.0, 187500.0, 187500.0, -182065.1733356921, 187500.0, 17393.568741508574, -182012.24440482195, -181997.17932905906, 0.054, 0.018000000000000002, 0.98, 192.0, 0.0, 0.0, 0.0, 0.0, 0.0, 0.0, 0.0, 0.0, 0.0, 1.708991127959465E9, 0.0, 2024-02-26 18:45:27.959
49.0, 187500.0, 187500.0, 187500.0, -181973.3523694697, 187500.0, 17177.852055770403, -181969.37375895664, -181943.35632841068, 0.054, 0.018000000000000002, 0.98, 192.0, 0.0, 0.0, 0.0, 0.0, 0.0, 0.0, 0.0, 0.0, 0.0, 1.708991127963468E9, 0.0, 2024-02-26 18:45:27.963
50.0, 187500.0, 187500.0, 187500.0, -181674.1295664465, 187500.0, 16329.871574624965, -181906.9900401819, -181861.25837102634, 0.054, 0.018000000000000002, 0.98, 192.0, 0.0, 0.0, 0.0, 0.0, 0.0, 0.0, 0.0, 0.0, 0.0, 1.70899112796846E9, 0.0, 2024-02-26 18:45:27.968
51.0, 187500.0, 187500.0, 187500.0, -181810.49755936832, 187500.0, 16357.297165071628, -181894.89774643158, -181869.28264728579, 0.054, 0.018000000000000002, 0.98, 192.0, 0.0, 0.0, 0.0, 0.0, 0.0, 0.0, 0.0, 0.0, 0.0, 1.708991127972516E9, 0.0, 2024-02-26 18:45:27.972
52.0, 187500.0, 187500.0, 187500.0, -182404.36105780138, 187500.0, 17195.219361212177, -182058.66897805562, -182033.1656376321, 0.054, 0.018000000000000002, 0.98, 192.0, 0.0, 0.0, 0.0, 0.0, 0.0, 0.0, 0.0, 0.0, 0.0, 1.708991127976498E9, 0.0, 2024-02-26 18:45:27.976
53.0, 187500.0, 187500.0, 187500.0, -182641.0660315831, 187500.0, 17187.820933797473, -182118.81752238484, -182093.44829242807, 0.054, 0.018000000000000002, 0.98, 192.0, 0.0, 0.0, 0.0, 0.0, 0.0, 0.0, 0.0, 0.0, 0.0, 1.708991127979497E9, 0.0, 2024-02-26 18:45:27.979
54.0, 187500.0, 187500.0, 187500.0, -182529.7319924512, 187500.0, 16120.86041222339, -182010.6127274767, -181983.8576893637, 0.054, 0.018000000000000002, 0.98, 192.0, 0.0, 0.0, 0.0, 0.0, 0.0, 0.0, 0.0, 0.0, 0.0, 1.708991127983527E9, 0.0, 2024-02-26 18:45:27.983
55.0, 187500.0, 187500.0, 187500.0, -182549.51328629415, 187500.0, 15867.324574866841, -182039.5135330574, -182011.7973699328, 0.054, 0.018000000000000002, 0.98, 192.0, 0.0, 0.0, 0.0, 0.0, 0.0, 0.0, 0.0, 0.0, 0.0, 1.708991127987501E9, 0.0, 2024-02-26 18:45:27.987
56.0, 187500.0, 187500.0, 187500.0, -182706.10960794802, 187500.0, 16595.209133053915, -182206.3022501829, -182178.2061074026, 0.054, 0.018000000000000002, 0.98, 192.0, 0.0, 0.0, 0.0, 0.0, 0.0, 0.0, 0.0, 0.0, 0.0, 1.708991127991503E9, 0.0, 2024-02-26 18:45:27.991
57.0, 187500.0, 187500.0, 187500.0, -182789.01222813278, 187500.0, 17003.776669952473, -182298.2796786165, -182269.55768699144, 0.052000000000000005, 0.018000000000000002, 0.98, 192.0, 1.0, 160.0, 0.0, 144.0, 30.0, 160.0, 0.0, 0.0, 0.0, 1.7089911279965E9, 0.0, 2024-02-26 18:45:27.996
58.0, 187500.0, 187500.0, 187500.0, -182651.28077879918, 187500.0, 16032.727483836114, -182166.2032206301, -182136.65421446017, 0.052000000000000005, 0.018000000000000002, 0.98, 192.0, 0.0, 0.0, 0.0, 0.0, 0.0, 0.0, 0.0, 0.0, 0.0, 1.708991128000513E9, 0.0, 2024-02-26 18:45:28.000
59.0, 187500.0, 187500.0, 187500.0, -182603.67156310935, 187500.0, 15708.49307876743, -182126.79709515537, -182095.5717081513, 0.052000000000000005, 0.018000000000000002, 0.98, 192.0, 0.0, 0.0, 0.0, 0.0, 0.0, 0.0, 0.0, 0.0, 0.0, 1.708991128003521E9, 0.0, 2024-02-26 18:45:28.003
60.0, 187500.0, 187500.0, 187500.0, -182687.53530830567, 187500.0, 16346.054237610608, -182220.6073666343, -182188.46555810756, 0.052000000000000005, 0.018000000000000002, 0.98, 192.0, 0.0, 0.0, 0.0, 0.0, 0.0, 0.0, 0.0, 0.0, 0.0, 1.708991128007534E9, 0.0, 2024-02-26 18:45:28.007
61.0, 187500.0, 187500.0, 187500.0, -182776.00351285978, 187500.0, 17035.98553371257, -182318.530359093, -182286.43325405518, 0.052000000000000005, 0.018000000000000002, 0.98, 192.0, 0.0, 0.0, 0.0, 0.0, 0.0, 0.0, 0.0, 0.0, 0.0, 1.708991128011519E9, 0.0, 2024-02-26 18:45:28.011
62.0, 187500.0, 187500.0, 187500.0, -182622.1564557739, 187500.0, 16205.528820220092, -182169.4442235761, -182135.55897898186, 0.052000000000000005, 0.018000000000000002, 0.98, 192.0, 0.0, 0.0, 0.0, 0.0, 0.0, 0.0, 0.0, 0.0, 0.0, 1.708991128015521E9, 0.0, 2024-02-26 18:45:28.015
63.0, 187500.0, 187500.0, 187500.0, -182529.46377151774, 187500.0, 15790.479277429497, -182082.8312138118, -182047.20253315003, 0.052000000000000005, 0.018000000000000002, 0.98, 192.0, 0.0, 0.0, 0.0, 0.0, 0.0, 0.0, 0.0, 0.0, 0.0, 1.708991128019513E9, 0.0, 2024-02-26 18:45:28.019
64.0, 187500.0, 187500.0, 187500.0, -182586.88540302342, 187500.0, 16292.99119627371, -182149.0370808884, -182112.7825513819, 0.052000000000000005, 0.018000000000000002, 0.98, 192.0, 0.0, 0.0, 0.0, 0.0, 0.0, 0.0, 0.0, 0.0, 0.0, 1.708991128024537E9, 0.0, 2024-02-26 18:45:28.024
65.0, 187500.0, 187500.0, 187500.0, -182702.53332883518, 187500.0, 17171.92884348975, -182274.13979460477, -182237.2147127646, 0.052000000000000005, 0.018000000000000002, 0.98, 192.0, 0.0, 0.0, 0.0, 0.0, 0.0, 0.0, 0.0, 0.0, 0.0, 1.708991128028546E9, 0.0, 2024-02-26 18:45:28.028
66.0, 187500.0, 187500.0, 187500.0, -182572.58028657202, 187500.0, 16533.115986957073, -182149.9982059, -182111.37439148122, 0.052000000000000005, 0.018000000000000002, 0.98, 192.0, 0.0, 0.0, 0.0, 0.0, 0.0, 0.0, 0.0, 0.0, 0.0, 1.708991128031554E9, 0.0, 2024-02-26 18:45:28.031
67.0, 187500.0, 187500.0, 187500.0, -182439.1627239183, 187500.0, 15992.516695561017, -182022.12387587118, -181981.84603236272, 0.054, 0.012, 0.982, 192.0, 1.0, 176.0, 0.0, 96.0, 30.0, 176.0, 0.0, 0.0, 0.0, 1.708991128035574E9, 0.0, 2024-02-26 18:45:28.035
68.0, 187500.0, 187500.0, 187500.0, -182467.63884635436, 187500.0, 16384.29807237364, -182058.69132980006, -182018.4134862916, 0.054, 0.012, 0.982, 192.0, 0.0, 0.0, 0.0, 0.0, 0.0, 0.0, 0.0, 0.0, 0.0, 1.708991128039572E9, 0.0, 2024-02-26 18:45:28.039
69.0, 187500.0, 187500.0, 187500.0, -182583.66675182185, 187500.0, 17386.68440421634, -182185.5598313284, -182145.48315352, 0.054, 0.012, 0.982, 192.0, 0.0, 0.0, 0.0, 0.0, 0.0, 0.0, 0.0, 0.0, 0.0, 1.708991128043567E9, 0.0, 2024-02-26 18:45:28.043
70.0, 187500.0, 187500.0, 187500.0, -182468.73408183266, 187500.0, 17004.17900135267, -182075.8798212862, -182034.6632045106, 0.054, 0.012, 0.982, 192.0, 0.0, 0.0, 0.0, 0.0, 0.0, 0.0, 0.0, 0.0, 0.0, 1.708991128047562E9, 0.0, 2024-02-26 18:45:28.047
71.0, 187500.0, 187500.0, 187500.0, -182328.92392026473, 187500.0, 16282.754097313178, -181941.27761617635, -181898.92106043352, 0.054, 0.012, 0.982, 192.0, 0.0, 0.0, 0.0, 0.0, 0.0, 0.0, 0.0, 0.0, 0.0, 1.708991128052595E9, 0.0, 2024-02-26 18:45:28.052
72.0, 187500.0, 187500.0, 187500.0, -182331.02498424353, 187500.0, 16440.691523634378, -181951.22414245896, -181907.90646170455, 0.054, 0.012, 0.982, 192.0, 0.0, 0.0, 0.0, 0.0, 0.0, 0.0, 0.0, 0.0, 0.0, 1.70899112805661E9, 0.0, 2024-02-26 18:45:28.056
73.0, 187500.0, 187500.0, 187500.0, -182461.53682011805, 187500.0, 17361.024601581645, -182092.0848360163, -182048.29776862834, 0.054, 0.012, 0.982, 192.0, 0.0, 0.0, 0.0, 0.0, 0.0, 0.0, 0.0, 0.0, 0.0, 1.708991128059598E9, 0.0, 2024-02-26 18:45:28.059
74.0, 187500.0, 187500.0, 187500.0, -182438.44746809572, 187500.0, 17185.16107620729, -182076.1256904752, -182031.15398063112, 0.054, 0.012, 0.982, 192.0, 0.0, 0.0, 0.0, 0.0, 0.0, 0.0, 0.0, 0.0, 0.0, 1.708991128063595E9, 0.0, 2024-02-26 18:45:28.063
75.0, 187500.0, 187500.0, 187500.0, -182296.7374082491, 187500.0, 16272.584053586013, -181940.45060163148, -181893.42253129752, 0.054, 0.012, 0.982, 192.0, 0.0, 0.0, 0.0, 0.0, 0.0, 0.0, 0.0, 0.0, 0.0, 1.708991128067586E9, 0.0, 2024-02-26 18:45:28.067
76.0, 187500.0, 187500.0, 187500.0, -182302.41475134072, 187500.0, 16271.667632063347, -181953.61577911567, -181905.80539772575, 0.054, 0.012, 0.982, 192.0, 0.0, 0.0, 0.0, 0.0, 0.0, 0.0, 0.0, 0.0, 0.0, 1.708991128071602E9, 0.0, 2024-02-26 18:45:28.071
77.0, 187500.0, 187500.0, 187500.0, -182441.12967743038, 187500.0, 17155.321497359455, -182101.31610647633, -182053.34926287524, 0.052000000000000005, 0.012, 0.982, 192.0, 1.0, 160.0, 0.0, 96.0, 30.0, 176.0, 0.0, 0.0, 0.0, 1.708991128075584E9, 0.0, 2024-02-26 18:45:28.075
78.0, 187500.0, 187500.0, 187500.0, -182435.2064651497, 187500.0, 17334.269563468642, -182102.1431210212, -182052.87987624167, 0.052000000000000005, 0.012, 0.982, 192.0, 0.0, 0.0, 0.0, 0.0, 0.0, 0.0, 0.0, 0.0, 0.0, 1.708991128080589E9, 0.0, 2024-02-26 18:45:28.080
79.0, 187500.0, 187500.0, 187500.0, -182256.23604729606, 187500.0, 16400.883066759478, -181926.97249972494, -181888.8404236842, 0.052000000000000005, 0.012, 0.982, 192.0, 0.0, 0.0, 0.0, 0.0, 0.0, 0.0, 0.0, 0.0, 0.0, 1.708991128084586E9, 0.0, 2024-02-26 18:45:28.084
80.0, 187500.0, 187500.0, 187500.0, -182210.07969499586, 187500.0, 16248.444169574283, -181887.29815331678, -181864.4770222279, 0.052000000000000005, 0.012, 0.982, 192.0, 0.0, 0.0, 0.0, 0.0, 0.0, 0.0, 0.0, 0.0, 0.0, 1.708991128087583E9, 0.0, 2024-02-26 18:45:28.087
81.0, 187500.0, 187500.0, 187500.0, -182326.50993186355, 187500.0, 17002.88260017426, -182014.0101926339, -181986.04816032032, 0.052000000000000005, 0.012, 0.982, 192.0, 0.0, 0.0, 0.0, 0.0, 0.0, 0.0, 0.0, 0.0, 0.0, 1.708991128091579E9, 0.0, 2024-02-26 18:45:28.091
82.0, 187500.0, 187500.0, 187500.0, -182431.58548254796, 187500.0, 17488.049565321155, -182129.03226960092, -182100.5784989093, 0.052000000000000005, 0.012, 0.982, 192.0, 0.0, 0.0, 0.0, 0.0, 0.0, 0.0, 0.0, 0.0, 0.0, 1.708991128095625E9, 0.0, 2024-02-26 18:45:28.095
83.0, 187500.0, 187500.0, 187500.0, -182284.75687322105, 187500.0, 16528.422120621457, -181987.36691324317, -181957.77320358434, 0.052000000000000005, 0.012, 0.982, 192.0, 0.0, 0.0, 0.0, 0.0, 0.0, 0.0, 0.0, 0.0, 0.0, 1.708991128099627E9, 0.0, 2024-02-26 18:45:28.099
84.0, 187500.0, 187500.0, 187500.0, -182211.510206641, 187500.0, 16181.567750164004, -181920.53519732182, -181888.5722027507, 0.052000000000000005, 0.012, 0.982, 192.0, 0.0, 0.0, 0.0, 0.0, 0.0, 0.0, 0.0, 0.0, 0.0, 1.70899112810364E9, 0.0, 2024-02-26 18:45:28.103
85.0, 187500.0, 187500.0, 187500.0, -182298.30203036097, 187500.0, 16776.79470500883, -182016.3124223128, -181983.0083230744, 0.052000000000000005, 0.012, 0.982, 192.0, 0.0, 0.0, 0.0, 0.0, 0.0, 0.0, 0.0, 0.0, 0.0, 1.708991128107644E9, 0.0, 2024-02-26 18:45:28.107
86.0, 187500.0, 187500.0, 187500.0, -182405.36688630187, 187500.0, 17513.12822260001, -182133.43556325862, -182099.483263431, 0.052000000000000005, 0.012, 0.982, 192.0, 0.0, 0.0, 0.0, 0.0, 0.0, 0.0, 0.0, 0.0, 0.0, 1.708991128112639E9, 0.0, 2024-02-26 18:45:28.112
87.0, 187500.0, 187500.0, 187500.0, -182265.78024217847, 187500.0, 16701.625788405632, -181998.49808198193, -181963.71876760948, 0.056, 0.016, 0.978, 192.0, 1.0, 192.0, 0.0, 128.0, 30.0, 144.0, 0.0, 0.0, 0.0, 1.708991128115641E9, 0.0, 2024-02-26 18:45:28.115
88.0, 187500.0, 187500.0, 187500.0, -182176.5520783129, 187500.0, 16198.532724205581, -181914.83550248572, -181879.5197462463, 0.056, 0.016, 0.978, 192.0, 0.0, 0.0, 0.0, 0.0, 0.0, 0.0, 0.0, 0.0, 0.0, 1.708991128119641E9, 0.0, 2024-02-26 18:45:28.119
89.0, 187500.0, 187500.0, 187500.0, -182235.24775925252, 187500.0, 16620.600714755146, -181983.0083230744, -181945.72561332295, 0.056, 0.016, 0.978, 192.0, 0.0, 0.0, 0.0, 0.0, 0.0, 0.0, 0.0, 0.0, 0.0, 1.708991128123648E9, 0.0, 2024-02-26 18:45:28.123
90.0, 187500.0, 187500.0, 187500.0, -182363.0997375369, 187500.0, 17499.828934649104, -182121.76795265294, -182083.59117312328, 0.056, 0.016, 0.978, 192.0, 0.0, 0.0, 0.0, 0.0, 0.0, 0.0, 0.0, 0.0, 0.0, 1.708991128127628E9, 0.0, 2024-02-26 18:45:28.127
91.0, 187500.0, 187500.0, 187500.0, -182253.5761897059, 187500.0, 16882.406697560156, -182016.37947754617, -181977.57684917175, 0.056, 0.016, 0.978, 192.0, 0.0, 0.0, 0.0, 0.0, 0.0, 0.0, 0.0, 0.0, 0.0, 1.708991128131635E9, 0.0, 2024-02-26 18:45:28.131
92.0, 187500.0, 187500.0, 187500.0, -182135.35781328176, 187500.0, 16236.441282801783, -181903.07848490222, -181863.56060070524, 0.056, 0.016, 0.978, 192.0, 0.0, 0.0, 0.0, 0.0, 0.0, 0.0, 0.0, 0.0, 0.0, 1.708991128136693E9, 0.0, 2024-02-26 18:45:28.136
93.0, 187500.0, 187500.0, 187500.0, -182170.6065142878, 187500.0, 16506.852687222086, -181947.17847671252, -181906.67711575952, 0.056, 0.016, 0.978, 192.0, 0.0, 0.0, 0.0, 0.0, 0.0, 0.0, 0.0, 0.0, 0.0, 1.708991128140685E9, 0.0, 2024-02-26 18:45:28.140
94.0, 187500.0, 187500.0, 187500.0, -182314.3282311354, 187500.0, 17452.532643381674, -182102.05371404334, -182060.65828331214, 0.056, 0.016, 0.978, 192.0, 0.0, 0.0, 0.0, 0.0, 0.0, 0.0, 0.0, 0.0, 0.0, 1.708991128143697E9, 0.0, 2024-02-26 18:45:28.143
95.0, 187500.0, 187500.0, 187500.0, -182252.7715269055, 187500.0, 17088.534484926997, -182047.0684226833, -182004.9130326406, 0.056, 0.016, 0.978, 192.0, 0.0, 0.0, 0.0, 0.0, 0.0, 0.0, 0.0, 0.0, 0.0, 1.708991128147687E9, 0.0, 2024-02-26 18:45:28.147
96.0, 187500.0, 187500.0, 187500.0, -182118.45989447355, 187500.0, 16278.037879233108, -181917.22713914243, -181873.99886536587, 0.056, 0.016, 0.978, 192.0, 0.0, 0.0, 0.0, 0.0, 0.0, 0.0, 0.0, 0.0, 0.0, 1.708991128151692E9, 0.0, 2024-02-26 18:45:28.151
97.0, 187500.0, 187500.0, 187500.0, -182117.20819678405, 187500.0, 16368.316575088094, -181922.99388921188, -181879.1844700795, 0.056, 0.014, 0.976, 192.0, 1.0, 192.0, 0.0, 112.0, 30.0, 128.0, 0.0, 0.0, 0.0, 1.708991128155707E9, 0.0, 2024-02-26 18:45:28.155
98.0, 187500.0, 187500.0, 187500.0, -182242.60148317832, 187500.0, 17294.349347871466, -182057.48433559947, -182013.54080600035, 0.056, 0.014, 0.976, 192.0, 0.0, 0.0, 0.0, 0.0, 0.0, 0.0, 0.0, 0.0, 0.0, 1.708991128159701E9, 0.0, 2024-02-26 18:45:28.159
99.0, 187500.0, 187500.0, 187500.0, -182215.08648575385, 187500.0, 17265.89557717986, -182039.24531212394, -181998.83335814875, 0.056, 0.014, 0.976, 192.0, 0.0, 0.0, 0.0, 0.0, 0.0, 0.0, 0.0, 0.0, 0.0, 1.708991128163691E9, 0.0, 2024-02-26 18:45:28.163
100.0, 187500.0, 187500.0, 187500.0, -182045.39204184915, 187500.0, 16380.945310705343, -181908.82288322723, -181891.36617080763, 0.056, 0.014, 0.976, 192.0, 0.0, 0.0, 0.0, 0.0, 0.0, 0.0, 0.0, 0.0, 0.0, 1.708991128167712E9, 0.0, 2024-02-26 18:45:28.167
101.0, 187500.0, 187500.0, 187500.0, -182012.8479019222, 187500.0, 16353.00563013621, -181896.06003714324, -181875.16115607755, 0.056, 0.014, 0.976, 192.0, 0.0, 0.0, 0.0, 0.0, 0.0, 0.0, 0.0, 0.0, 0.0, 1.708991128170693E9, 0.0, 2024-02-26 18:45:28.170
102.0, 187500.0, 187500.0, 187500.0, -182132.49678999148, 187500.0, 17197.722756591174, -182017.2511955799, -181997.44754999253, 0.056, 0.014, 0.976, 192.0, 0.0, 0.0, 0.0, 0.0, 0.0, 0.0, 0.0, 0.0, 0.0, 1.708991128175704E9, 0.0, 2024-02-26 18:45:28.175
103.0, 187500.0, 187500.0, 187500.0, -182155.40732805818, 187500.0, 17457.78530332867, -182050.71175702952, -182030.08109689728, 0.056, 0.014, 0.976, 192.0, 0.0, 0.0, 0.0, 0.0, 0.0, 0.0, 0.0, 0.0, 0.0, 1.708991128179693E9, 0.0, 2024-02-26 18:45:28.179
104.0, 187500.0, 187500.0, 187500.0, -181976.57102067125, 187500.0, 16488.479553279823, -181932.8957120056, -181908.75582799385, 0.056, 0.014, 0.976, 192.0, 0.0, 0.0, 0.0, 0.0, 0.0, 0.0, 0.0, 0.0, 0.0, 1.708991128183694E9, 0.0, 2024-02-26 18:45:28.183
105.0, 187500.0, 187500.0, 187500.0, -181891.74615046338, 187500.0, 16249.181777141308, -181899.1445778781, -181882.2243073254, 0.056, 0.014, 0.976, 192.0, 0.0, 0.0, 0.0, 0.0, 0.0, 0.0, 0.0, 0.0, 0.0, 1.708991128187749E9, 0.0, 2024-02-26 18:45:28.187
106.0, 187500.0, 187500.0, 187500.0, -181999.54861397133, 187500.0, 16946.44444542461, -181994.18419530205, -181986.76341614287, 0.056, 0.014, 0.976, 192.0, 0.0, 0.0, 0.0, 0.0, 0.0, 0.0, 0.0, 0.0, 0.0, 1.708991128191731E9, 0.0, 2024-02-26 18:45:28.191
107.0, 187500.0, 187500.0, 187500.0, -182089.29086795938, 187500.0, 17480.673489650904, -182092.01778078292, -182082.60769636725, 0.056, 0.014, 0.972, 192.0, 1.0, 192.0, 0.0, 112.0, 30.0, 96.0, 0.0, 0.0, 0.0, 1.708991128195742E9, 0.0, 2024-02-26 18:45:28.195
108.0, 187500.0, 187500.0, 187500.0, -181913.82967398522, 187500.0, 16567.627080396065, -181939.75769755337, -181927.12896193613, 0.056, 0.014, 0.972, 192.0, 0.0, 0.0, 0.0, 0.0, 0.0, 0.0, 0.0, 0.0, 0.0, 1.708991128198756E9, 0.0, 2024-02-26 18:45:28.198
109.0, 187500.0, 187500.0, 187500.0, -181690.20047070988, 187500.0, 16208.903933632844, -181876.2787433003, -181857.01153957983, 0.056, 0.014, 0.972, 192.0, 0.0, 0.0, 0.0, 0.0, 0.0, 0.0, 0.0, 0.0, 0.0, 1.708991128203737E9, 0.0, 2024-02-26 18:45:28.203
110.0, 187500.0, 187500.0, 187500.0, -181866.33221701768, 187500.0, 16798.81117329731, -181909.91811870554, -181895.70240923198, 0.056, 0.014, 0.972, 192.0, 0.0, 0.0, 0.0, 0.0, 0.0, 0.0, 0.0, 0.0, 0.0, 1.708991128207744E9, 0.0, 2024-02-26 18:45:28.207
111.0, 187500.0, 187500.0, 187500.0, -182376.3543219989, 187500.0, 17635.14639558153, -182003.41546576208, -181986.27167776486, 0.056, 0.014, 0.972, 192.0, 0.0, 0.0, 0.0, 0.0, 0.0, 0.0, 0.0, 0.0, 0.0, 1.708991128211731E9, 0.0, 2024-02-26 18:45:28.211
112.0, 187500.0, 187500.0, 187500.0, -182343.87723730534, 187500.0, 16905.943084471593, -181966.69154962202, -181900.30686858975, 0.056, 0.014, 0.972, 192.0, 0.0, 0.0, 0.0, 0.0, 0.0, 0.0, 0.0, 0.0, 0.0, 1.708991128215728E9, 0.0, 2024-02-26 18:45:28.215
113.0, 187500.0, 187500.0, 187500.0, -182187.03504646244, 187500.0, 16408.326197663093, -181931.57695908274, -181865.48285072838, 0.056, 0.014, 0.972, 192.0, 0.0, 0.0, 0.0, 0.0, 0.0, 0.0, 0.0, 0.0, 0.0, 1.708991128219735E9, 0.0, 2024-02-26 18:45:28.219
114.0, 187500.0, 187500.0, 187500.0, -182195.41695063317, 187500.0, 16833.076397547295, -181904.75486573635, -181879.96678113542, 0.056, 0.014, 0.972, 192.0, 0.0, 0.0, 0.0, 0.0, 0.0, 0.0, 0.0, 0.0, 0.0, 1.708991128223732E9, 0.0, 2024-02-26 18:45:28.223
115.0, 187500.0, 187500.0, 187500.0, -182305.20871939763, 187500.0, 17782.667908986557, -182016.3124223128, -181986.71871265396, 0.056, 0.014, 0.972, 192.0, 0.0, 0.0, 0.0, 0.0, 0.0, 0.0, 0.0, 0.0, 0.0, 1.708991128226779E9, 0.0, 2024-02-26 18:45:28.226
116.0, 187500.0, 187500.0, 187500.0, -182183.0564359494, 187500.0, 17267.90723418084, -181964.0093402874, -181921.78689501132, 0.054, 0.014, 0.974, 192.0, 1.0, 176.0, 0.0, 112.0, 30.0, 112.0, 0.0, 0.0, 0.0, 1.708991128232016E9, 0.0, 2024-02-26 18:45:28.232
117.0, 187500.0, 187500.0, 187500.0, -182017.83234093577, 187500.0, 16595.633816198566, -181905.0454384143, -181871.94250487597, 0.054, 0.014, 0.974, 192.0, 0.0, 0.0, 0.0, 0.0, 0.0, 0.0, 0.0, 0.0, 0.0, 1.70899112823578E9, 0.0, 2024-02-26 18:45:28.235
118.0, 187500.0, 187500.0, 187500.0, -182016.9159194131, 187500.0, 16850.913089622627, -181886.00175213837, -181872.50129848736, 0.054, 0.014, 0.974, 192.0, 0.0, 0.0, 0.0, 0.0, 0.0, 0.0, 0.0, 0.0, 0.0, 1.708991128239783E9, 0.0, 2024-02-26 18:45:28.239
119.0, 187500.0, 187500.0, 187500.0, -182133.03323185843, 187500.0, 17843.352895182717, -182004.64481170714, -181989.37857024415, 0.054, 0.014, 0.974, 192.0, 0.0, 0.0, 0.0, 0.0, 0.0, 0.0, 0.0, 0.0, 0.0, 1.708991128243773E9, 0.0, 2024-02-26 18:45:28.243
120.0, 187500.0, 187500.0, 187500.0, -182044.1179924152, 187500.0, 17614.62749417156, -181968.99377930092, -181939.42242138655, 0.054, 0.014, 0.974, 192.0, 0.0, 0.0, 0.0, 0.0, 0.0, 0.0, 0.0, 0.0, 0.0, 1.708991128247766E9, 0.0, 2024-02-26 18:45:28.247
121.0, 187500.0, 187500.0, 187500.0, -181861.81716463773, 187500.0, 16827.4214062001, -181892.3943510526, -181854.61990292312, 0.054, 0.014, 0.974, 192.0, 0.0, 0.0, 0.0, 0.0, 0.0, 0.0, 0.0, 0.0, 0.0, 1.70899112825177E9, 0.0, 2024-02-26 18:45:28.251
122.0, 187500.0, 187500.0, 187500.0, -181848.13789703106, 187500.0, 16928.384235904723, -181856.20687677944, -181838.0796120262, 0.054, 0.014, 0.974, 192.0, 0.0, 0.0, 0.0, 0.0, 0.0, 0.0, 0.0, 0.0, 0.0, 1.708991128254767E9, 0.0, 2024-02-26 18:45:28.254
123.0, 187500.0, 187500.0, 187500.0, -181973.57588691424, 187500.0, 17871.381982729672, -181985.5564219423, -181966.33392171073, 0.054, 0.014, 0.974, 192.0, 0.0, 0.0, 0.0, 0.0, 0.0, 0.0, 0.0, 0.0, 0.0, 1.708991128259767E9, 0.0, 2024-02-26 18:45:28.259
124.0, 187500.0, 187500.0, 187500.0, -181940.6964708205, 187500.0, 17998.026966813442, -181990.78673014484, -181965.97629379944, 0.054, 0.014, 0.974, 192.0, 0.0, 0.0, 0.0, 0.0, 0.0, 0.0, 0.0, 0.0, 0.0, 1.708991128263846E9, 0.0, 2024-02-26 18:45:28.263
125.0, 187500.0, 187500.0, 187500.0, -181614.4280570064, 187500.0, 17249.668210705306, -181921.07163918874, -181855.98335933487, 0.054, 0.014, 0.974, 192.0, 0.0, 0.0, 0.0, 0.0, 0.0, 0.0, 0.0, 0.0, 0.0, 1.708991128267837E9, 0.0, 2024-02-26 18:45:28.267
126.0, 187500.0, 187500.0, 187500.0, -181695.2966684457, 187500.0, 17367.797180151603, -181883.40894978153, -181838.68310912646, 0.054, 0.016, 0.974, 192.0, 1.0, 176.0, 0.0, 128.0, 30.0, 112.0, 0.0, 0.0, 0.0, 1.708991128271812E9, 0.0, 2024-02-26 18:45:28.271
127.0, 187500.0, 187500.0, 187500.0, -182222.12728525727, 187500.0, 18180.350146335382, -181977.62155266065, -181941.92581676555, 0.054, 0.016, 0.974, 192.0, 0.0, 0.0, 0.0, 0.0, 0.0, 0.0, 0.0, 0.0, 0.0, 1.708991128275826E9, 0.0, 2024-02-26 18:45:28.275
128.0, 187500.0, 187500.0, 187500.0, -182563.4384230898, 187500.0, 18403.59936995499, -182049.90709422913, -182012.9149571556, 0.054, 0.016, 0.974, 192.0, 0.0, 0.0, 0.0, 0.0, 0.0, 0.0, 0.0, 0.0, 0.0, 1.708991128279817E9, 0.0, 2024-02-26 18:45:28.279
129.0, 187500.0, 187500.0, 187500.0, -182428.053906924, 187500.0, 17428.191593669842, -181905.11249364764, -181865.88518212858, 0.054, 0.016, 0.974, 192.0, 0.0, 0.0, 0.0, 0.0, 0.0, 0.0, 0.0, 0.0, 0.0, 1.708991128282816E9, 0.0, 2024-02-26 18:45:28.282
130.0, 187500.0, 187500.0, 187500.0, -182383.48452848013, 187500.0, 17035.583202312377, -181867.69567342947, -181826.8143328207, 0.054, 0.016, 0.974, 192.0, 0.0, 0.0, 0.0, 0.0, 0.0, 0.0, 0.0, 0.0, 0.0, 1.708991128286816E9, 0.0, 2024-02-26 18:45:28.286
131.0, 187500.0, 187500.0, 187500.0, -182488.80594835355, 187500.0, 17697.530114356294, -181981.80132887381, -181941.00939524287, 0.054, 0.016, 0.974, 192.0, 0.0, 0.0, 0.0, 0.0, 0.0, 0.0, 0.0, 0.0, 0.0, 1.708991128291818E9, 0.0, 2024-02-26 18:45:28.291
132.0, 187500.0, 187500.0, 187500.0, -182586.68423732332, 187500.0, 18328.408101607336, -182089.6261441262, -182048.63304479516, 0.054, 0.016, 0.974, 192.0, 0.0, 0.0, 0.0, 0.0, 0.0, 0.0, 0.0, 0.0, 0.0, 1.708991128295811E9, 0.0, 2024-02-26 18:45:28.295
133.0, 187500.0, 187500.0, 187500.0, -182444.8177152655, 187500.0, 17487.46841996532, -181953.7945930713, -181910.87924371712, 0.054, 0.016, 0.974, 192.0, 0.0, 0.0, 0.0, 0.0, 0.0, 0.0, 0.0, 0.0, 0.0, 1.708991128299819E9, 0.0, 2024-02-26 18:45:28.299
134.0, 187500.0, 187500.0, 187500.0, -182360.9986735581, 187500.0, 17099.35272924337, -181876.9716473784, -181839.68893762695, 0.054, 0.016, 0.974, 192.0, 0.0, 0.0, 0.0, 0.0, 0.0, 0.0, 0.0, 0.0, 0.0, 1.708991128302855E9, 0.0, 2024-02-26 18:45:28.302
135.0, 187500.0, 187500.0, 187500.0, -182437.2628256396, 187500.0, 17578.328261176142, -181961.5506483973, -181924.89378749058, 0.054, 0.016, 0.974, 192.0, 0.0, 0.0, 0.0, 0.0, 0.0, 0.0, 0.0, 0.0, 0.0, 1.708991128306975E9, 0.0, 2024-02-26 18:45:28.306
136.0, 187500.0, 187500.0, 187500.0, -182567.4840888362, 187500.0, 18398.525523963635, -182101.0925890318, -182064.07810021378, 0.054, 0.02, 0.976, 192.0, 1.0, 176.0, 0.0, 160.0, 30.0, 128.0, 0.0, 0.0, 0.0, 1.708991128310854E9, 0.0, 2024-02-26 18:45:28.310
137.0, 187500.0, 187500.0, 187500.0, -182462.14031721835, 187500.0, 17612.63818891504, -182001.42616050557, -181963.2940844648, 0.054, 0.02, 0.976, 192.0, 0.0, 0.0, 0.0, 0.0, 0.0, 0.0, 0.0, 0.0, 0.0, 1.708991128314868E9, 0.0, 2024-02-26 18:45:28.314
138.0, 187500.0, 187500.0, 187500.0, -182355.07546127745, 187500.0, 16944.611602379275, -181900.5974412677, -181860.58781869267, 0.054, 0.02, 0.976, 192.0, 0.0, 0.0, 0.0, 0.0, 0.0, 0.0, 0.0, 0.0, 0.0, 1.708991128318858E9, 0.0, 2024-02-26 18:45:28.318
139.0, 187500.0, 187500.0, 187500.0, -182401.32122055546, 187500.0, 17217.414643456297, -181956.0968227502, -181914.43317108552, 0.054, 0.02, 0.976, 192.0, 0.0, 0.0, 0.0, 0.0, 0.0, 0.0, 0.0, 0.0, 0.0, 1.708991128323876E9, 0.0, 2024-02-26 18:45:28.323
140.0, 187500.0, 187500.0, 187500.0, -182546.24993160367, 187500.0, 18127.68943639868, -182111.95553683705, -182069.80014679435, 0.054, 0.02, 0.976, 192.0, 0.0, 0.0, 0.0, 0.0, 0.0, 0.0, 0.0, 0.0, 0.0, 1.708991128327866E9, 0.0, 2024-02-26 18:45:28.327
141.0, 187500.0, 187500.0, 187500.0, -182461.55917186252, 187500.0, 17686.577759573192, -182033.59032077674, -181989.49032896644, 0.054, 0.02, 0.976, 192.0, 0.0, 0.0, 0.0, 0.0, 0.0, 0.0, 0.0, 0.0, 0.0, 1.708991128330863E9, 0.0, 2024-02-26 18:45:28.330
142.0, 187500.0, 187500.0, 187500.0, -182325.16882719623, 187500.0, 16969.84672186932, -181901.2456418569, -181857.16800179103, 0.054, 0.02, 0.976, 192.0, 0.0, 0.0, 0.0, 0.0, 0.0, 0.0, 0.0, 0.0, 0.0, 1.708991128334861E9, 0.0, 2024-02-26 18:45:28.334
143.0, 187500.0, 187500.0, 187500.0, -182331.58377785492, 187500.0, 17176.64506156982, -181915.26018563035, -181870.31082753075, 0.054, 0.02, 0.976, 192.0, 0.0, 0.0, 0.0, 0.0, 0.0, 0.0, 0.0, 0.0, 0.0, 1.708991128338867E9, 0.0, 2024-02-26 18:45:28.338
144.0, 187500.0, 187500.0, 187500.0, -182469.24817195514, 187500.0, 18139.848785382364, -182064.18985893606, -182018.1676171026, 0.054, 0.02, 0.976, 192.0, 0.0, 0.0, 0.0, 0.0, 0.0, 0.0, 0.0, 0.0, 0.0, 1.708991128342888E9, 0.0, 2024-02-26 18:45:28.342
145.0, 187500.0, 187500.0, 187500.0, -182441.84493325293, 187500.0, 17959.291393672396, -182044.74384125994, -181997.11227382568, 0.054, 0.02, 0.976, 192.0, 0.0, 0.0, 0.0, 0.0, 0.0, 0.0, 0.0, 0.0, 0.0, 1.708991128347866E9, 0.0, 2024-02-26 18:45:28.347
146.0, 187500.0, 187500.0, 187500.0, -182295.3739518373, 187500.0, 17042.780464026986, -181903.7937407248, -181860.11843205913, 0.058, 0.016, 0.976, 192.0, 1.0, 208.0, 0.0, 128.0, 30.0, 128.0, 0.0, 0.0, 0.0, 1.708991128351914E9, 0.0, 2024-02-26 18:45:28.351
147.0, 187500.0, 187500.0, 187500.0, -182320.1396846938, 187500.0, 17016.60657126982, -181935.91319750706, -181892.79668245278, 0.058, 0.016, 0.976, 192.0, 0.0, 0.0, 0.0, 0.0, 0.0, 0.0, 0.0, 0.0, 0.0, 1.708991128355916E9, 0.0, 2024-02-26 18:45:28.355
148.0, 187500.0, 187500.0, 187500.0, -182477.2724482146, 187500.0, 17854.43936043255, -182103.10424603274, -182059.33953038926, 0.058, 0.016, 0.976, 192.0, 0.0, 0.0, 0.0, 0.0, 0.0, 0.0, 0.0, 0.0, 0.0, 1.708991128358913E9, 0.0, 2024-02-26 18:45:28.358
149.0, 187500.0, 187500.0, 187500.0, -182497.43372171329, 187500.0, 17950.6859720571, -182131.26744404645, -182087.5697836363, 0.058, 0.016, 0.976, 192.0, 0.0, 0.0, 0.0, 0.0, 0.0, 0.0, 0.0, 0.0, 0.0, 1.708991128362912E9, 0.0, 2024-02-26 18:45:28.362
150.0, 187500.0, 187500.0, 187500.0, -182334.60126335637, 187500.0, 16977.40161149521, -181973.57588691424, -181927.79951426978, 0.058, 0.016, 0.976, 192.0, 0.0, 0.0, 0.0, 0.0, 0.0, 0.0, 0.0, 0.0, 0.0, 1.708991128366898E9, 0.0, 2024-02-26 18:45:28.366
151.0, 187500.0, 187500.0, 187500.0, -182313.5459200795, 187500.0, 16826.348522466247, -181959.31547395178, -181913.42734258503, 0.058, 0.016, 0.976, 192.0, 0.0, 0.0, 0.0, 0.0, 0.0, 0.0, 0.0, 0.0, 0.0, 1.708991128370919E9, 0.0, 2024-02-26 18:45:28.370
152.0, 187500.0, 187500.0, 187500.0, -182430.44554358072, 187500.0, 17594.10859276159, -182085.20049872407, -182039.5135330574, 0.058, 0.016, 0.976, 192.0, 0.0, 0.0, 0.0, 0.0, 0.0, 0.0, 0.0, 0.0, 0.0, 1.708991128374918E9, 0.0, 2024-02-26 18:45:28.374
153.0, 187500.0, 187500.0, 187500.0, -182481.38516919437, 187500.0, 18047.580784270856, -182144.6337872307, -182098.8797663307, 0.058, 0.016, 0.976, 192.0, 0.0, 0.0, 0.0, 0.0, 0.0, 0.0, 0.0, 0.0, 0.0, 1.708991128379917E9, 0.0, 2024-02-26 18:45:28.379
154.0, 187500.0, 187500.0, 187500.0, -182320.69847830516, 187500.0, 17120.206906820167, -181988.41744523257, -181941.47878187645, 0.058, 0.016, 0.976, 192.0, 0.0, 0.0, 0.0, 0.0, 0.0, 0.0, 0.0, 0.0, 0.0, 1.708991128383906E9, 0.0, 2024-02-26 18:45:28.383
155.0, 187500.0, 187500.0, 187500.0, -182254.20203855063, 187500.0, 16818.033673528873, -181928.64888055908, -181879.4750427574, 0.058, 0.016, 0.976, 192.0, 0.0, 0.0, 0.0, 0.0, 0.0, 0.0, 0.0, 0.0, 0.0, 1.708991128386898E9, 0.0, 2024-02-26 18:45:28.386
156.0, 187500.0, 187500.0, 187500.0, -182343.09492624938, 187500.0, 17427.498689591728, -182027.35418407372, -181976.8615933492, 0.058, 0.014, 0.978, 192.0, 1.0, 208.0, 0.0, 112.0, 30.0, 144.0, 0.0, 0.0, 0.0, 1.70899112839092E9, 0.0, 2024-02-26 18:45:28.390
157.0, 187500.0, 187500.0, 187500.0, -182452.23849442464, 187500.0, 18111.462069924124, -182146.46663027606, -182095.37054245122, 0.058, 0.014, 0.978, 192.0, 0.0, 0.0, 0.0, 0.0, 0.0, 0.0, 0.0, 0.0, 0.0, 1.708991128394904E9, 0.0, 2024-02-26 18:45:28.394
158.0, 187500.0, 187500.0, 187500.0, -182308.00268745454, 187500.0, 17260.50880676613, -182006.92468964157, -181954.12986923812, 0.058, 0.014, 0.978, 192.0, 0.0, 0.0, 0.0, 0.0, 0.0, 0.0, 0.0, 0.0, 0.0, 1.708991128398906E9, 0.0, 2024-02-26 18:45:28.398
159.0, 187500.0, 187500.0, 187500.0, -182210.48202639606, 187500.0, 16777.822885253776, -181915.72957226392, -181861.3254262597, 0.058, 0.014, 0.978, 192.0, 0.0, 0.0, 0.0, 0.0, 0.0, 0.0, 0.0, 0.0, 0.0, 1.708991128403965E9, 0.0, 2024-02-26 18:45:28.403
160.0, 187500.0, 187500.0, 187500.0, -182248.27882627, 187500.0, 17211.022044542082, -181961.64005537512, -181906.56535703724, 0.058, 0.014, 0.978, 192.0, 0.0, 0.0, 0.0, 0.0, 0.0, 0.0, 0.0, 0.0, 0.0, 1.708991128407945E9, 0.0, 2024-02-26 18:45:28.407
161.0, 187500.0, 187500.0, 187500.0, -182376.2425632766, 187500.0, 18086.606930089823, -182099.37150470872, -182044.3191581153, 0.058, 0.014, 0.978, 192.0, 0.0, 0.0, 0.0, 0.0, 0.0, 0.0, 0.0, 0.0, 0.0, 1.708991128411944E9, 0.0, 2024-02-26 18:45:28.411
162.0, 187500.0, 187500.0, 187500.0, -182249.84344838184, 187500.0, 17429.577401826074, -181978.44856720552, -181939.42242138655, 0.058, 0.014, 0.978, 192.0, 0.0, 0.0, 0.0, 0.0, 0.0, 0.0, 0.0, 0.0, 0.0, 1.70899112841496E9, 0.0, 2024-02-26 18:45:28.414
163.0, 187500.0, 187500.0, 187500.0, -182121.05269683036, 187500.0, 16791.435097627058, -181859.91726635903, -181854.75401338984, 0.058, 0.014, 0.978, 192.0, 0.0, 0.0, 0.0, 0.0, 0.0, 0.0, 0.0, 0.0, 0.0, 1.708991128418941E9, 0.0, 2024-02-26 18:45:28.418
164.0, 187500.0, 187500.0, 187500.0, -182142.9350546521, 187500.0, 17064.506359637544, -181898.45167379995, -181881.30788580276, 0.058, 0.014, 0.978, 192.0, 0.0, 0.0, 0.0, 0.0, 0.0, 0.0, 0.0, 0.0, 0.0, 1.708991128422954E9, 0.0, 2024-02-26 18:45:28.422
165.0, 187500.0, 187500.0, 187500.0, -182279.3253993184, 187500.0, 18004.240751772017, -182041.34637610274, -182024.78373346137, 0.058, 0.014, 0.978, 192.0, 0.0, 0.0, 0.0, 0.0, 0.0, 0.0, 0.0, 0.0, 0.0, 1.708991128426946E9, 0.0, 2024-02-26 18:45:28.426
166.0, 187500.0, 187500.0, 187500.0, -182208.0009827615, 187500.0, 17611.855877859103, -181993.78186390185, -181972.3018374803, 0.056, 0.016, 0.982, 192.0, 1.0, 192.0, 0.0, 128.0, 30.0, 176.0, 0.0, 0.0, 0.0, 1.708991128430963E9, 0.0, 2024-02-26 18:45:28.430
167.0, 187500.0, 187500.0, 187500.0, -182037.63598652315, 187500.0, 16820.4700136745, -181888.21457483943, -181865.7734234063, 0.056, 0.016, 0.982, 192.0, 0.0, 0.0, 0.0, 0.0, 0.0, 0.0, 0.0, 0.0, 0.0, 1.708991128435945E9, 0.0, 2024-02-26 18:45:28.435
168.0, 187500.0, 187500.0, 187500.0, -182024.716678228, 187500.0, 16952.814692594373, -181868.9697228634, -181854.41873722302, 0.056, 0.016, 0.982, 192.0, 0.0, 0.0, 0.0, 0.0, 0.0, 0.0, 0.0, 0.0, 0.0, 1.708991128438941E9, 0.0, 2024-02-26 18:45:28.438
169.0, 187500.0, 187500.0, 187500.0, -182151.8310489453, 187500.0, 17905.155468601642, -182001.49321573894, -181986.71871265396, 0.056, 0.016, 0.982, 192.0, 0.0, 0.0, 0.0, 0.0, 0.0, 0.0, 0.0, 0.0, 0.0, 1.708991128442943E9, 0.0, 2024-02-26 18:45:28.442
170.0, 187500.0, 187500.0, 187500.0, -182126.95355736656, 187500.0, 17844.24696496093, -181995.27943078036, -181977.59920091621, 0.056, 0.016, 0.982, 192.0, 0.0, 0.0, 0.0, 0.0, 0.0, 0.0, 0.0, 0.0, 0.0, 1.708991128446992E9, 0.0, 2024-02-26 18:45:28.446
171.0, 187500.0, 187500.0, 187500.0, -181950.10655523618, 187500.0, 16962.045963054414, -181906.7441709929, -181877.95512413446, 0.056, 0.016, 0.982, 192.0, 0.0, 0.0, 0.0, 0.0, 0.0, 0.0, 0.0, 0.0, 0.0, 1.708991128450997E9, 0.0, 2024-02-26 18:45:28.450
172.0, 187500.0, 187500.0, 187500.0, -181903.8831477026, 187500.0, 16936.632029608732, -181866.13105131758, -181846.26035049683, 0.056, 0.016, 0.982, 192.0, 0.0, 0.0, 0.0, 0.0, 0.0, 0.0, 0.0, 0.0, 0.0, 1.708991128454996E9, 0.0, 2024-02-26 18:45:28.454
173.0, 187500.0, 187500.0, 187500.0, -182013.47375076698, 187500.0, 17787.361775322173, -181973.95586657, -181956.67796810603, 0.056, 0.016, 0.982, 192.0, 0.0, 0.0, 0.0, 0.0, 0.0, 0.0, 0.0, 0.0, 0.0, 1.708991128458985E9, 0.0, 2024-02-26 18:45:28.458
174.0, 187500.0, 187500.0, 187500.0, -182038.88768421265, 187500.0, 18026.056054360397, -182017.83234093577, -181997.58166045925, 0.056, 0.016, 0.982, 192.0, 0.0, 0.0, 0.0, 0.0, 0.0, 0.0, 0.0, 0.0, 0.0, 1.708991128463981E9, 0.0, 2024-02-26 18:45:28.463
175.0, 187500.0, 187500.0, 187500.0, -181722.81166587016, 187500.0, 17056.303269422446, -181926.68192704703, -181868.1203565741, 0.056, 0.016, 0.982, 192.0, 0.0, 0.0, 0.0, 0.0, 0.0, 0.0, 0.0, 0.0, 0.0, 1.708991128466994E9, 0.0, 2024-02-26 18:45:28.466
176.0, 187500.0, 187500.0, 187500.0, -181676.3870926365, 187500.0, 16893.5378662989, -181884.8841649156, -181834.03394627976, 0.054, 0.018000000000000002, 0.978, 192.0, 1.0, 176.0, 0.0, 144.0, 30.0, 144.0, 0.0, 0.0, 0.0, 1.708991128471004E9, 0.0, 2024-02-26 18:45:28.471
177.0, 187500.0, 187500.0, 187500.0, -182154.55796176888, 187500.0, 17642.097788107134, -181950.441831403, -181910.20869138345, 0.054, 0.018000000000000002, 0.978, 192.0, 0.0, 0.0, 0.0, 0.0, 0.0, 0.0, 0.0, 0.0, 0.0, 1.708991128474994E9, 0.0, 2024-02-26 18:45:28.474
178.0, 187500.0, 187500.0, 187500.0, -182528.59205348397, 187500.0, 18181.93712019171, -182021.1180473707, -181981.22018351796, 0.054, 0.018000000000000002, 0.978, 192.0, 0.0, 0.0, 0.0, 0.0, 0.0, 0.0, 0.0, 0.0, 0.0, 1.70899112847899E9, 0.0, 2024-02-26 18:45:28.478
179.0, 187500.0, 187500.0, 187500.0, -182373.96268534218, 187500.0, 17294.19288566028, -181918.97057520994, -181879.2738770573, 0.054, 0.018000000000000002, 0.978, 192.0, 0.0, 0.0, 0.0, 0.0, 0.0, 0.0, 0.0, 0.0, 0.0, 1.708991128483088E9, 0.0, 2024-02-26 18:45:28.483
180.0, 187500.0, 187500.0, 187500.0, -182268.26128581303, 187500.0, 16980.575559207864, -181857.19035353546, -181839.08544052666, 0.054, 0.018000000000000002, 0.978, 192.0, 0.0, 0.0, 0.0, 0.0, 0.0, 0.0, 0.0, 0.0, 0.0, 1.708991128487107E9, 0.0, 2024-02-26 18:45:28.487
181.0, 187500.0, 187500.0, 187500.0, -182309.72377177762, 187500.0, 17573.187359951422, -181884.54888874877, -181871.16019382005, 0.054, 0.018000000000000002, 0.978, 192.0, 0.0, 0.0, 0.0, 0.0, 0.0, 0.0, 0.0, 0.0, 0.0, 1.708991128492088E9, 0.0, 2024-02-26 18:45:28.492
182.0, 187500.0, 187500.0, 187500.0, -182406.46212178018, 187500.0, 18367.456599170757, -181992.954849357, -181977.7109596385, 0.054, 0.018000000000000002, 0.978, 192.0, 0.0, 0.0, 0.0, 0.0, 0.0, 0.0, 0.0, 0.0, 0.0, 1.708991128495083E9, 0.0, 2024-02-26 18:45:28.495
183.0, 187500.0, 187500.0, 187500.0, -182252.5256577165, 187500.0, 17599.58477015314, -181921.63043280013, -181879.94442939098, 0.054, 0.018000000000000002, 0.978, 192.0, 0.0, 0.0, 0.0, 0.0, 0.0, 0.0, 0.0, 0.0, 0.0, 1.708991128498086E9, 0.0, 2024-02-26 18:45:28.498
184.0, 187500.0, 187500.0, 187500.0, -182131.20038881307, 187500.0, 17100.515019955044, -181867.7180251739, -181831.2176264784, 0.054, 0.018000000000000002, 0.978, 192.0, 0.0, 0.0, 0.0, 0.0, 0.0, 0.0, 0.0, 0.0, 0.0, 1.708991128503105E9, 0.0, 2024-02-26 18:45:28.503
185.0, 187500.0, 187500.0, 187500.0, -182161.62111301676, 187500.0, 17495.447992735862, -181873.64123745458, -181849.79192612076, 0.054, 0.018000000000000002, 0.978, 192.0, 0.0, 0.0, 0.0, 0.0, 0.0, 0.0, 0.0, 0.0, 0.0, 1.708991128507092E9, 0.0, 2024-02-26 18:45:28.507
186.0, 187500.0, 187500.0, 187500.0, -182288.8695942008, 187500.0, 18402.861762387965, -182008.69047745355, -181984.93057309755, 0.056, 0.014, 0.984, 192.0, 1.0, 192.0, 0.0, 112.0, 30.0, 192.0, 0.0, 0.0, 0.0, 1.708991128511082E9, 0.0, 2024-02-26 18:45:28.511
187.0, 187500.0, 187500.0, 187500.0, -182182.22942140454, 187500.0, 17823.81747052878, -181938.66246207507, -181910.5439675503, 0.056, 0.014, 0.984, 192.0, 0.0, 0.0, 0.0, 0.0, 0.0, 0.0, 0.0, 0.0, 0.0, 1.708991128515087E9, 0.0, 2024-02-26 18:45:28.515
188.0, 187500.0, 187500.0, 187500.0, -182040.9216929581, 187500.0, 17149.10771240088, -181854.70930990094, -181825.49557989783, 0.056, 0.014, 0.984, 192.0, 0.0, 0.0, 0.0, 0.0, 0.0, 0.0, 0.0, 0.0, 0.0, 1.70899112852009E9, 0.0, 2024-02-26 18:45:28.520
189.0, 187500.0, 187500.0, 187500.0, -182042.15103890313, 187500.0, 17393.47933453075, -181854.48579245637, -181829.9212253, 0.056, 0.014, 0.984, 192.0, 0.0, 0.0, 0.0, 0.0, 0.0, 0.0, 0.0, 0.0, 0.0, 1.708991128523111E9, 0.0, 2024-02-26 18:45:28.523
190.0, 187500.0, 187500.0, 187500.0, -182160.21295311608, 187500.0, 18355.096084486973, -181977.19686951602, -181954.06281400478, 0.056, 0.014, 0.984, 192.0, 0.0, 0.0, 0.0, 0.0, 0.0, 0.0, 0.0, 0.0, 0.0, 1.708991128526101E9, 0.0, 2024-02-26 18:45:28.526
191.0, 187500.0, 187500.0, 187500.0, -182094.34236220628, 187500.0, 18076.638052062757, -181944.67508133355, -181913.18147339602, 0.056, 0.014, 0.984, 192.0, 0.0, 0.0, 0.0, 0.0, 0.0, 0.0, 0.0, 0.0, 0.0, 1.708991128531096E9, 0.0, 2024-02-26 18:45:28.531
192.0, 187500.0, 187500.0, 187500.0, -181909.02404892733, 187500.0, 17265.4261905463, -181886.0911591162, -181838.7278126154, 0.056, 0.014, 0.984, 192.0, 0.0, 0.0, 0.0, 0.0, 0.0, 0.0, 0.0, 0.0, 0.0, 1.708991128535105E9, 0.0, 2024-02-26 18:45:28.535
193.0, 187500.0, 187500.0, 187500.0, -181893.51193827533, 187500.0, 17372.11106683148, -181866.89101062907, -181843.84636209565, 0.056, 0.014, 0.984, 192.0, 0.0, 0.0, 0.0, 0.0, 0.0, 0.0, 0.0, 0.0, 0.0, 1.708991128539107E9, 0.0, 2024-02-26 18:45:28.539
194.0, 187500.0, 187500.0, 187500.0, -182030.19285561953, 187500.0, 18299.037909393064, -182000.42033200507, -181976.3027997378, 0.056, 0.014, 0.984, 192.0, 0.0, 0.0, 0.0, 0.0, 0.0, 0.0, 0.0, 0.0, 0.0, 1.708991128543087E9, 0.0, 2024-02-26 18:45:28.543
195.0, 187500.0, 187500.0, 187500.0, -182003.37076227317, 187500.0, 18308.112717641918, -181984.03650331934, -181958.98019778493, 0.056, 0.018000000000000002, 0.98, 192.0, 1.0, 192.0, 0.0, 144.0, 30.0, 160.0, 0.0, 0.0, 0.0, 1.708991128547089E9, 0.0, 2024-02-26 18:45:28.547
196.0, 187500.0, 187500.0, 187500.0, -181785.86593697857, 187500.0, 17402.643549757428, -181852.65294941104, -181831.10586775612, 0.056, 0.018000000000000002, 0.98, 192.0, 0.0, 0.0, 0.0, 0.0, 0.0, 0.0, 0.0, 0.0, 0.0, 1.708991128551087E9, 0.0, 2024-02-26 18:45:28.551
197.0, 187500.0, 187500.0, 187500.0, -181648.58152253408, 187500.0, 17359.683496914327, -181830.1223910001, -181814.09619022562, 0.056, 0.018000000000000002, 0.98, 192.0, 0.0, 0.0, 0.0, 0.0, 0.0, 0.0, 0.0, 0.0, 0.0, 1.708991128555094E9, 0.0, 2024-02-26 18:45:28.555
198.0, 187500.0, 187500.0, 187500.0, -182054.51155358693, 187500.0, 18211.150850194794, -181933.72272655045, -181917.92004322054, 0.056, 0.018000000000000002, 0.98, 192.0, 0.0, 0.0, 0.0, 0.0, 0.0, 0.0, 0.0, 0.0, 0.0, 1.708991128559107E9, 0.0, 2024-02-26 18:45:28.559
199.0, 187500.0, 187500.0, 187500.0, -182434.2006366492, 187500.0, 18551.880842671497, -181980.12494803965, -181963.51760190938, 0.056, 0.018000000000000002, 0.98, 192.0, 0.0, 0.0, 0.0, 0.0, 0.0, 0.0, 0.0, 0.0, 0.0, 1.708991128563096E9, 0.0, 2024-02-26 18:45:28.563
200.0, 187500.0, 187500.0, 187500.0, -182294.81515822592, 187500.0, 17619.500174462817, -181866.6674931845, -181844.20399000694, 0.056, 0.018000000000000002, 0.98, 192.0, 0.0, 0.0, 0.0, 0.0, 0.0, 0.0, 0.0, 0.0, 0.0, 1.708991128567091E9, 0.0, 2024-02-26 18:45:28.567
201.0, 187500.0, 187500.0, 187500.0, -182236.43240170868, 187500.0, 17403.023529413167, -181831.8658270676, -181816.28666118227, 0.056, 0.018000000000000002, 0.98, 192.0, 0.0, 0.0, 0.0, 0.0, 0.0, 0.0, 0.0, 0.0, 0.0, 1.708991128571088E9, 0.0, 2024-02-26 18:45:28.571
202.0, 187500.0, 187500.0, 187500.0, -182330.24267318757, 187500.0, 18088.797401046446, -181922.39039211159, -181908.6887727605, 0.056, 0.018000000000000002, 0.98, 192.0, 0.0, 0.0, 0.0, 0.0, 0.0, 0.0, 0.0, 0.0, 0.0, 1.708991128575106E9, 0.0, 2024-02-26 18:45:28.575
203.0, 187500.0, 187500.0, 187500.0, -182415.24635735113, 187500.0, 18691.802762961717, -182016.69240196855, -182002.52139598387, 0.056, 0.018000000000000002, 0.98, 192.0, 0.0, 0.0, 0.0, 0.0, 0.0, 0.0, 0.0, 0.0, 0.0, 1.708991128578108E9, 0.0, 2024-02-26 18:45:28.578
204.0, 187500.0, 187500.0, 187500.0, -182259.74527117555, 187500.0, 17805.62315054216, -181875.40702526656, -181858.6208651806, 0.056, 0.018000000000000002, 0.98, 192.0, 0.0, 0.0, 0.0, 0.0, 0.0, 0.0, 0.0, 0.0, 0.0, 1.708991128582109E9, 0.0, 2024-02-26 18:45:28.582
205.0, 187500.0, 187500.0, 187500.0, -182178.98841845852, 187500.0, 17407.359767837497, -181818.67829783898, -181802.4062278755, 0.054, 0.016, 0.98, 192.0, 1.0, 176.0, 0.0, 128.0, 30.0, 160.0, 0.0, 0.0, 0.0, 1.708991128587106E9, 0.0, 2024-02-26 18:45:28.587
206.0, 187500.0, 187500.0, 187500.0, -182248.43528848115, 187500.0, 17923.59565777727, -181889.64508648458, -181874.55765897725, 0.054, 0.016, 0.98, 192.0, 0.0, 0.0, 0.0, 0.0, 0.0, 0.0, 0.0, 0.0, 0.0, 1.708991128591111E9, 0.0, 2024-02-26 18:45:28.591
207.0, 187500.0, 187500.0, 187500.0, -182366.92188583873, 187500.0, 18725.59860057814, -182017.09473336872, -182001.62732620566, 0.054, 0.016, 0.98, 192.0, 0.0, 0.0, 0.0, 0.0, 0.0, 0.0, 0.0, 0.0, 0.0, 1.708991128595108E9, 0.0, 2024-02-26 18:45:28.595
208.0, 187500.0, 187500.0, 187500.0, -182230.28567198347, 187500.0, 17995.90355109019, -181892.9754964084, -181874.04356885477, 0.054, 0.016, 0.98, 192.0, 0.0, 0.0, 0.0, 0.0, 0.0, 0.0, 0.0, 0.0, 0.0, 1.708991128599105E9, 0.0, 2024-02-26 18:45:28.599
209.0, 187500.0, 187500.0, 187500.0, -182138.01767087195, 187500.0, 17452.532643381674, -181811.68220182447, -181796.84064350615, 0.054, 0.016, 0.98, 192.0, 0.0, 0.0, 0.0, 0.0, 0.0, 0.0, 0.0, 0.0, 0.0, 1.708991128603159E9, 0.0, 2024-02-26 18:45:28.603
210.0, 187500.0, 187500.0, 187500.0, -182178.8096045029, 187500.0, 17810.67464478906, -181857.21270527993, -181842.88523708406, 0.054, 0.016, 0.98, 192.0, 0.0, 0.0, 0.0, 0.0, 0.0, 0.0, 0.0, 0.0, 0.0, 1.708991128606169E9, 0.0, 2024-02-26 18:45:28.606
211.0, 187500.0, 187500.0, 187500.0, -182318.61976607083, 187500.0, 18742.563574619722, -182008.6010704757, -181993.02190459037, 0.054, 0.016, 0.98, 192.0, 0.0, 0.0, 0.0, 0.0, 0.0, 0.0, 0.0, 0.0, 0.0, 1.708991128611171E9, 0.0, 2024-02-26 18:45:28.611
212.0, 187500.0, 187500.0, 187500.0, -182231.8055906064, 187500.0, 18238.7552545971, -181928.96180498146, -181911.8850722176, 0.054, 0.016, 0.98, 192.0, 0.0, 0.0, 0.0, 0.0, 0.0, 0.0, 0.0, 0.0, 0.0, 1.708991128615166E9, 0.0, 2024-02-26 18:45:28.615
213.0, 187500.0, 187500.0, 187500.0, -182111.30733624785, 187500.0, 17503.136992828488, -181814.02913499228, -181802.8532627646, 0.054, 0.016, 0.98, 192.0, 0.0, 0.0, 0.0, 0.0, 0.0, 0.0, 0.0, 0.0, 0.0, 1.708991128619169E9, 0.0, 2024-02-26 18:45:28.619
214.0, 187500.0, 187500.0, 187500.0, -182136.09542084878, 187500.0, 17663.77898022878, -181846.64033015256, -181835.8220858362, 0.054, 0.016, 0.98, 192.0, 0.0, 0.0, 0.0, 0.0, 0.0, 0.0, 0.0, 0.0, 0.0, 1.708991128623169E9, 0.0, 2024-02-26 18:45:28.623
215.0, 187500.0, 187500.0, 187500.0, -182285.9638674216, 187500.0, 18579.90993021845, -182007.9975733754, -181995.54765171383, 0.066, 0.014, 0.98, 192.0, 2.0, 16.0, 0.0, 112.0, 30.0, 160.0, 0.0, 0.0, 0.0, 1.708991128627158E9, 0.0, 2024-02-26 18:45:28.627
216.0, 187500.0, 187500.0, 187500.0, -182244.3672709903, 187500.0, 18337.013523222628, -181973.709997381, -181960.3436541967, 0.066, 0.014, 0.98, 192.0, 0.0, 0.0, 0.0, 0.0, 0.0, 0.0, 0.0, 0.0, 0.0, 1.708991128631161E9, 0.0, 2024-02-26 18:45:28.631
217.0, 187500.0, 187500.0, 187500.0, -182108.62512691322, 187500.0, 17467.64242263346, -181841.85705683913, -181826.50140839833, 0.066, 0.014, 0.98, 192.0, 0.0, 0.0, 0.0, 0.0, 0.0, 0.0, 0.0, 0.0, 0.0, 1.708991128634163E9, 0.0, 2024-02-26 18:45:28.634
218.0, 187500.0, 187500.0, 187500.0, -182109.4297897136, 187500.0, 17472.55980641363, -181849.56840867622, -181833.58691139065, 0.066, 0.014, 0.98, 192.0, 0.0, 0.0, 0.0, 0.0, 0.0, 0.0, 0.0, 0.0, 0.0, 1.708991128638179E9, 0.0, 2024-02-26 18:45:28.638
219.0, 187500.0, 187500.0, 187500.0, -182242.53442794495, 187500.0, 18331.76086327563, -181993.37953250165, -181977.24157300493, 0.066, 0.014, 0.98, 192.0, 0.0, 0.0, 0.0, 0.0, 0.0, 0.0, 0.0, 0.0, 0.0, 1.70899112864322E9, 0.0, 2024-02-26 18:45:28.643
220.0, 187500.0, 187500.0, 187500.0, -182250.29048327095, 187500.0, 18415.982236383228, -182009.07045710928, -181991.72550341196, 0.066, 0.014, 0.98, 192.0, 0.0, 0.0, 0.0, 0.0, 0.0, 0.0, 0.0, 0.0, 0.0, 1.708991128647179E9, 0.0, 2024-02-26 18:45:28.647
221.0, 187500.0, 187500.0, 187500.0, -182093.44829242807, 187500.0, 17468.000050544746, -181860.65487392605, -181842.86288533962, 0.066, 0.014, 0.98, 192.0, 0.0, 0.0, 0.0, 0.0, 0.0, 0.0, 0.0, 0.0, 0.0, 1.708991128651199E9, 0.0, 2024-02-26 18:45:28.651
222.0, 187500.0, 187500.0, 187500.0, -182043.89447497064, 187500.0, 17329.218069221744, -181827.5742921322, -181813.17976870298, 0.066, 0.014, 0.98, 192.0, 0.0, 0.0, 0.0, 0.0, 0.0, 0.0, 0.0, 0.0, 0.0, 1.708991128655222E9, 0.0, 2024-02-26 18:45:28.655
223.0, 187500.0, 187500.0, 187500.0, -182159.0506624044, 187500.0, 18112.356139702337, -181949.68187209152, -181934.77325853985, 0.066, 0.014, 0.98, 192.0, 0.0, 0.0, 0.0, 0.0, 0.0, 0.0, 0.0, 0.0, 0.0, 1.708991128659215E9, 0.0, 2024-02-26 18:45:28.659
224.0, 187500.0, 187500.0, 187500.0, -182217.43341892166, 187500.0, 18512.60882766352, -182016.468884524, -182000.06270409378, 0.066, 0.014, 0.98, 192.0, 0.0, 0.0, 0.0, 0.0, 0.0, 0.0, 0.0, 0.0, 0.0, 1.708991128662199E9, 0.0, 2024-02-26 18:45:28.662
225.0, 187500.0, 187500.0, 187500.0, -182054.86918149822, 187500.0, 17561.117417945556, -181876.3234467892, -181855.71513840143, 0.062, 0.016, 0.982, 192.0, 1.0, 240.0, 0.0, 128.0, 30.0, 176.0, 0.0, 0.0, 0.0, 1.708991128666186E9, 0.0, 2024-02-26 18:45:28.666
226.0, 187500.0, 187500.0, 187500.0, -181978.5603259278, 187500.0, 17247.74596068215, -181839.95715856043, -181821.78519031827, 0.062, 0.016, 0.982, 192.0, 0.0, 0.0, 0.0, 0.0, 0.0, 0.0, 0.0, 0.0, 0.0, 1.70899112867019E9, 0.0, 2024-02-26 18:45:28.670
227.0, 187500.0, 187500.0, 187500.0, -182063.85458276924, 187500.0, 17862.91067158111, -181924.2902903903, -181910.61102278365, 0.062, 0.016, 0.982, 192.0, 0.0, 0.0, 0.0, 0.0, 0.0, 0.0, 0.0, 0.0, 0.0, 1.708991128675239E9, 0.0, 2024-02-26 18:45:28.675
228.0, 187500.0, 187500.0, 187500.0, -182170.6065142878, 187500.0, 18514.642836408955, -182038.06066966782, -182023.59909100522, 0.062, 0.016, 0.982, 192.0, 0.0, 0.0, 0.0, 0.0, 0.0, 0.0, 0.0, 0.0, 0.0, 1.708991128679229E9, 0.0, 2024-02-26 18:45:28.679
229.0, 187500.0, 187500.0, 187500.0, -182030.48342829748, 187500.0, 17639.840261917147, -181902.184415124, -181886.3817317941, 0.062, 0.016, 0.982, 192.0, 0.0, 0.0, 0.0, 0.0, 0.0, 0.0, 0.0, 0.0, 0.0, 1.708991128683235E9, 0.0, 2024-02-26 18:45:28.683
230.0, 187500.0, 187500.0, 187500.0, -181948.67604359105, 187500.0, 17176.44389586972, -181825.7638008313, -181809.17880644547, 0.062, 0.016, 0.982, 192.0, 0.0, 0.0, 0.0, 0.0, 0.0, 0.0, 0.0, 0.0, 0.0, 1.708991128686252E9, 0.0, 2024-02-26 18:45:28.686
231.0, 187500.0, 187500.0, 187500.0, -182000.77795991636, 187500.0, 17617.041482572735, -181887.36520855012, -181869.8190891527, 0.062, 0.016, 0.982, 192.0, 0.0, 0.0, 0.0, 0.0, 0.0, 0.0, 0.0, 0.0, 0.0, 1.708991128690244E9, 0.0, 2024-02-26 18:45:28.690
232.0, 187500.0, 187500.0, 187500.0, -182113.56486243784, 187500.0, 18449.42044608837, -182010.72448619897, -181993.08895982374, 0.062, 0.016, 0.982, 192.0, 0.0, 0.0, 0.0, 0.0, 0.0, 0.0, 0.0, 0.0, 0.0, 1.70899112869425E9, 0.0, 2024-02-26 18:45:28.694
233.0, 187500.0, 187500.0, 187500.0, -181999.77213141587, 187500.0, 17779.784533951824, -181922.32333687824, -181903.12318839112, 0.062, 0.016, 0.982, 192.0, 0.0, 0.0, 0.0, 0.0, 0.0, 0.0, 0.0, 0.0, 0.0, 1.708991128698236E9, 0.0, 2024-02-26 18:45:28.698
234.0, 187500.0, 187500.0, 187500.0, -181879.76561543532, 187500.0, 17165.715058531172, -181840.40419344953, -181821.3158036847, 0.062, 0.016, 0.982, 192.0, 0.0, 0.0, 0.0, 0.0, 0.0, 0.0, 0.0, 0.0, 0.0, 1.708991128703226E9, 0.0, 2024-02-26 18:45:28.703
235.0, 187500.0, 187500.0, 187500.0, -181907.70529600445, 187500.0, 17464.2226057318, -181864.00763559435, -181847.33323423067, 0.06, 0.012, 0.98, 192.0, 1.0, 224.0, 0.0, 96.0, 30.0, 160.0, 0.0, 0.0, 0.0, 1.708991128707274E9, 0.0, 2024-02-26 18:45:28.707
236.0, 187500.0, 187500.0, 187500.0, -182052.70106228604, 187500.0, 18399.754869908676, -182018.59230024723, -182001.18029131656, 0.06, 0.012, 0.98, 192.0, 0.0, 0.0, 0.0, 0.0, 0.0, 0.0, 0.0, 0.0, 0.0, 1.708991128711274E9, 0.0, 2024-02-26 18:45:28.711
237.0, 187500.0, 187500.0, 187500.0, -181970.8489740907, 187500.0, 17959.98429775051, -181956.1415262391, -181935.30970040677, 0.06, 0.012, 0.98, 192.0, 0.0, 0.0, 0.0, 0.0, 0.0, 0.0, 0.0, 0.0, 0.0, 1.708991128714247E9, 0.0, 2024-02-26 18:45:28.714
238.0, 187500.0, 187500.0, 187500.0, -181817.73952457187, 187500.0, 17180.198988938213, -181854.75401338984, -181823.70744034142, 0.06, 0.012, 0.98, 192.0, 0.0, 0.0, 0.0, 0.0, 0.0, 0.0, 0.0, 0.0, 0.0, 1.70899112871826E9, 0.0, 2024-02-26 18:45:28.718
239.0, 187500.0, 187500.0, 187500.0, -181826.3672979316, 187500.0, 17318.46688013874, -181867.04747284026, -181838.5713504042, 0.06, 0.012, 0.98, 192.0, 0.0, 0.0, 0.0, 0.0, 0.0, 0.0, 0.0, 0.0, 0.0, 1.70899112872224E9, 0.0, 2024-02-26 18:45:28.722
240.0, 187500.0, 187500.0, 187500.0, -181965.41750018808, 187500.0, 18242.912679065787, -182009.8080646763, -181983.92474459705, 0.06, 0.012, 0.98, 192.0, 0.0, 0.0, 0.0, 0.0, 0.0, 0.0, 0.0, 0.0, 0.0, 1.708991128726288E9, 0.0, 2024-02-26 18:45:28.726
241.0, 187500.0, 187500.0, 187500.0, -181911.32627860623, 187500.0, 18102.43196516418, -181983.79063413033, -181957.92966579553, 0.06, 0.012, 0.98, 192.0, 0.0, 0.0, 0.0, 0.0, 0.0, 0.0, 0.0, 0.0, 0.0, 1.708991128731256E9, 0.0, 2024-02-26 18:45:28.731
242.0, 187500.0, 187500.0, 187500.0, -181624.19576933334, 187500.0, 17217.280532989567, -181842.9746440619, -181827.99897527683, 0.06, 0.012, 0.98, 192.0, 0.0, 0.0, 0.0, 0.0, 0.0, 0.0, 0.0, 0.0, 0.0, 1.708991128735252E9, 0.0, 2024-02-26 18:45:28.735
243.0, 187500.0, 187500.0, 187500.0, -181757.658035476, 187500.0, 17210.35149220842, -181821.60637636262, -181808.9552890009, 0.06, 0.012, 0.98, 192.0, 0.0, 0.0, 0.0, 0.0, 0.0, 0.0, 0.0, 0.0, 0.0, 1.70899112873939E9, 0.0, 2024-02-26 18:45:28.739
244.0, 187500.0, 187500.0, 187500.0, -182300.7383705066, 187500.0, 18071.072467693386, -181942.55166561028, -181929.23002591493, 0.06, 0.012, 0.98, 192.0, 0.0, 0.0, 0.0, 0.0, 0.0, 0.0, 0.0, 0.0, 0.0, 1.708991128742302E9, 0.0, 2024-02-26 18:45:28.742
245.0, 187500.0, 187500.0, 187500.0, -182556.06234741956, 187500.0, 18250.80284485851, -181990.51850921137, -181975.76635787086, 0.062, 0.012, 0.978, 192.0, 1.0, 240.0, 0.0, 96.0, 30.0, 144.0, 0.0, 0.0, 0.0, 1.708991128746301E9, 0.0, 2024-02-26 18:45:28.746
246.0, 187500.0, 187500.0, 187500.0, -182385.13855756982, 187500.0, 17291.04128969208, -181869.19324030797, -181847.86967609762, 0.062, 0.012, 0.978, 192.0, 0.0, 0.0, 0.0, 0.0, 0.0, 0.0, 0.0, 0.0, 0.0, 1.708991128750324E9, 0.0, 2024-02-26 18:45:28.750
247.0, 187500.0, 187500.0, 187500.0, -182338.11048723586, 187500.0, 17122.33032254342, -181835.55386490273, -181817.49365538283, 0.062, 0.012, 0.978, 192.0, 0.0, 0.0, 0.0, 0.0, 0.0, 0.0, 0.0, 0.0, 0.0, 1.708991128754287E9, 0.0, 2024-02-26 18:45:28.754
248.0, 187500.0, 187500.0, 187500.0, -182438.69333728473, 187500.0, 17843.934040538556, -181937.47781961894, -181921.38456361112, 0.062, 0.012, 0.978, 192.0, 0.0, 0.0, 0.0, 0.0, 0.0, 0.0, 0.0, 0.0, 0.0, 1.70899112875929E9, 0.0, 2024-02-26 18:45:28.759
249.0, 187500.0, 187500.0, 187500.0, -182501.8817188599, 187500.0, 18316.472270068203, -182010.2550995654, -181993.06660807927, 0.062, 0.012, 0.978, 192.0, 0.0, 0.0, 0.0, 0.0, 0.0, 0.0, 0.0, 0.0, 0.0, 1.708991128763312E9, 0.0, 2024-02-26 18:45:28.763
250.0, 187500.0, 187500.0, 187500.0, -182339.09396399188, 187500.0, 17382.862255914482, -181879.85502241316, -181857.9726645914, 0.062, 0.012, 0.978, 192.0, 0.0, 0.0, 0.0, 0.0, 0.0, 0.0, 0.0, 0.0, 0.0, 1.708991128766285E9, 0.0, 2024-02-26 18:45:28.766
251.0, 187500.0, 187500.0, 187500.0, -182256.14664031824, 187500.0, 17037.259583146522, -181830.3682601891, -181811.99512624682, 0.062, 0.012, 0.978, 192.0, 0.0, 0.0, 0.0, 0.0, 0.0, 0.0, 0.0, 0.0, 0.0, 1.70899112877031E9, 0.0, 2024-02-26 18:45:28.770
252.0, 187500.0, 187500.0, 187500.0, -182331.1367429658, 187500.0, 17602.825773099157, -181902.00560116835, -181885.51001376033, 0.062, 0.012, 0.978, 192.0, 0.0, 0.0, 0.0, 0.0, 0.0, 0.0, 0.0, 0.0, 0.0, 1.70899112877434E9, 0.0, 2024-02-26 18:45:28.774
253.0, 187500.0, 187500.0, 187500.0, -182438.58157856247, 187500.0, 18309.677339753787, -182018.6146519917, -182001.73908492795, 0.062, 0.012, 0.978, 192.0, 0.0, 0.0, 0.0, 0.0, 0.0, 0.0, 0.0, 0.0, 0.0, 1.708991128778337E9, 0.0, 2024-02-26 18:45:28.778
254.0, 187500.0, 187500.0, 187500.0, -182301.34186760688, 187500.0, 17491.22351303381, -181900.15040637855, -181882.6266387256, 0.062, 0.012, 0.978, 192.0, 0.0, 0.0, 0.0, 0.0, 0.0, 0.0, 0.0, 0.0, 0.0, 1.708991128782347E9, 0.0, 2024-02-26 18:45:28.782
255.0, 187500.0, 187500.0, 187500.0, -182199.37320940176, 187500.0, 16985.805867410407, -181832.670489868, -181818.34302167213, 0.06, 0.01, 0.982, 192.0, 1.0, 224.0, 0.0, 80.0, 30.0, 176.0, 0.0, 0.0, 0.0, 1.708991128786336E9, 0.0, 2024-02-26 18:45:28.786
0.0, 187500.0, 187500.0, 187500.0, -182248.3682332478, 187500.0, 17390.551256007107, -181880.30205730227, -181867.60626645165, 0.06, 0.01, 0.982, 192.0, 0.0, 0.0, 0.0, 0.0, 0.0, 0.0, 0.0, 0.0, 0.0, 1.708991128791345E9, 0.0, 2024-02-26 18:45:28.791
1.0, 187500.0, 187500.0, 187500.0, -182366.16192652727, 187500.0, 18260.682315907754, -182007.39407627514, -181994.87709938016, 0.06, 0.01, 0.982, 192.0, 0.0, 0.0, 0.0, 0.0, 0.0, 0.0, 0.0, 0.0, 0.0, 1.708991128794341E9, 0.0, 2024-02-26 18:45:28.794
2.0, 187500.0, 187500.0, 187500.0, -182241.5285994445, 187500.0, 17649.093884121645, -181923.50797933436, -181899.189281367, 0.06, 0.01, 0.982, 192.0, 0.0, 0.0, 0.0, 0.0, 0.0, 0.0, 0.0, 0.0, 0.0, 1.708991128798345E9, 0.0, 2024-02-26 18:45:28.798
3.0, 187500.0, 187500.0, 187500.0, -182094.49882441747, 187500.0, 16988.286911044946, -181850.77540287678, -181819.08062923918, 0.06, 0.01, 0.982, 192.0, 0.0, 0.0, 0.0, 0.0, 0.0, 0.0, 0.0, 0.0, 0.0, 1.708991128802365E9, 0.0, 2024-02-26 18:45:28.802
4.0, 187500.0, 187500.0, 187500.0, -182106.50171118995, 187500.0, 17244.393199013855, -181849.47900169838, -181833.29633871274, 0.06, 0.01, 0.982, 192.0, 0.0, 0.0, 0.0, 0.0, 0.0, 0.0, 0.0, 0.0, 0.0, 1.708991128806345E9, 0.0, 2024-02-26 18:45:28.806
5.0, 187500.0, 187500.0, 187500.0, -182241.4168407222, 187500.0, 18184.328756848427, -181990.85378537822, -181975.47578519295, 0.06, 0.01, 0.982, 192.0, 0.0, 0.0, 0.0, 0.0, 0.0, 0.0, 0.0, 0.0, 0.0, 1.708991128810343E9, 0.0, 2024-02-26 18:45:28.810
6.0, 187500.0, 187500.0, 187500.0, -182159.00595891548, 187500.0, 17831.417063643585, -181934.81796202876, -181913.02501118483, 0.06, 0.01, 0.982, 192.0, 0.0, 0.0, 0.0, 0.0, 0.0, 0.0, 0.0, 0.0, 0.0, 1.708991128814347E9, 0.0, 2024-02-26 18:45:28.814
7.0, 187500.0, 187500.0, 187500.0, -181994.54182321334, 187500.0, 17022.485080061564, -181860.99015009287, -181830.2117979779, 0.06, 0.01, 0.982, 192.0, 0.0, 0.0, 0.0, 0.0, 0.0, 0.0, 0.0, 0.0, 0.0, 1.708991128819356E9, 0.0, 2024-02-26 18:45:28.819
8.0, 187500.0, 187500.0, 187500.0, -181973.21825900296, 187500.0, 17113.54608697249, -181840.78417310526, -181818.83476005017, 0.06, 0.01, 0.982, 192.0, 0.0, 0.0, 0.0, 0.0, 0.0, 0.0, 0.0, 0.0, 0.0, 1.708991128822344E9, 0.0, 2024-02-26 18:45:28.822
9.0, 187500.0, 187500.0, 187500.0, -182100.01970529792, 187500.0, 18026.77131018297, -181966.57979089973, -181946.6420348456, 0.052000000000000005, 0.014, 0.984, 192.0, 1.0, 160.0, 0.0, 112.0, 30.0, 192.0, 0.0, 0.0, 0.0, 1.708991128826341E9, 0.0, 2024-02-26 18:45:28.826
10.0, 187500.0, 187500.0, 187500.0, -182062.53582984637, 187500.0, 17976.904568303176, -181950.3971279141, -181923.88795899012, 0.052000000000000005, 0.014, 0.984, 192.0, 0.0, 0.0, 0.0, 0.0, 0.0, 0.0, 0.0, 0.0, 0.0, 1.708991128830342E9, 0.0, 2024-02-26 18:45:28.830
11.0, 187500.0, 187500.0, 187500.0, -181874.53530723279, 187500.0, 17064.349897426357, -181869.8190891527, -181825.7638008313, 0.052000000000000005, 0.014, 0.984, 192.0, 0.0, 0.0, 0.0, 0.0, 0.0, 0.0, 0.0, 0.0, 0.0, 1.708991128834391E9, 0.0, 2024-02-26 18:45:28.834
12.0, 187500.0, 187500.0, 187500.0, -181825.0261932643, 187500.0, 17000.155687350714, -181820.1758647175, -181811.12340821308, 0.052000000000000005, 0.014, 0.984, 192.0, 0.0, 0.0, 0.0, 0.0, 0.0, 0.0, 0.0, 0.0, 0.0, 1.708991128838383E9, 0.0, 2024-02-26 18:45:28.838
13.0, 187500.0, 187500.0, 187500.0, -181929.65470905957, 187500.0, 17817.782499525845, -181921.96570896695, -181911.30392686176, 0.052000000000000005, 0.014, 0.984, 192.0, 0.0, 0.0, 0.0, 0.0, 0.0, 0.0, 0.0, 0.0, 0.0, 1.708991128843394E9, 0.0, 2024-02-26 18:45:28.843
14.0, 187500.0, 187500.0, 187500.0, -181938.12602020815, 187500.0, 18094.83237204938, -181954.12986923812, -181938.6848138195, 0.052000000000000005, 0.014, 0.984, 192.0, 0.0, 0.0, 0.0, 0.0, 0.0, 0.0, 0.0, 0.0, 0.0, 1.708991128847396E9, 0.0, 2024-02-26 18:45:28.847
15.0, 187500.0, 187500.0, 187500.0, -181615.9256238849, 187500.0, 17148.68302925623, -181877.50808924536, -181818.8571117946, 0.052000000000000005, 0.014, 0.984, 192.0, 0.0, 0.0, 0.0, 0.0, 0.0, 0.0, 0.0, 0.0, 0.0, 1.708991128850388E9, 0.0, 2024-02-26 18:45:28.850
16.0, 187500.0, 187500.0, 187500.0, -181601.12876905547, 187500.0, 16953.26172748348, -181862.97945534938, -181804.82021627668, 0.052000000000000005, 0.014, 0.984, 192.0, 0.0, 0.0, 0.0, 0.0, 0.0, 0.0, 0.0, 0.0, 0.0, 1.708991128854391E9, 0.0, 2024-02-26 18:45:28.854
17.0, 187500.0, 187500.0, 187500.0, -182089.04499877038, 187500.0, 17675.40188734554, -181923.79855201227, -181888.1251678616, 0.052000000000000005, 0.014, 0.984, 192.0, 0.0, 0.0, 0.0, 0.0, 0.0, 0.0, 0.0, 0.0, 0.0, 1.708991128858381E9, 0.0, 2024-02-26 18:45:28.858
18.0, 187500.0, 187500.0, 187500.0, -182473.47265165718, 187500.0, 18222.863164289378, -181991.01024758938, -181953.7498895824, 0.052000000000000005, 0.016, 0.978, 192.0, 1.0, 160.0, 0.0, 128.0, 30.0, 144.0, 0.0, 0.0, 0.0, 1.708991128862394E9, 0.0, 2024-02-26 18:45:28.862
19.0, 187500.0, 187500.0, 187500.0, -182331.42731564373, 187500.0, 17333.956639046268, -181857.16800179103, -181830.7258881004, 0.052000000000000005, 0.016, 0.978, 192.0, 0.0, 0.0, 0.0, 0.0, 0.0, 0.0, 0.0, 0.0, 0.0, 1.708991128866391E9, 0.0, 2024-02-26 18:45:28.866
20.0, 187500.0, 187500.0, 187500.0, -182235.82890460838, 187500.0, 16969.109114302293, -181802.13800694206, -181784.03309393325, 0.052000000000000005, 0.016, 0.978, 192.0, 0.0, 0.0, 0.0, 0.0, 0.0, 0.0, 0.0, 0.0, 0.0, 1.708991128872385E9, 0.0, 2024-02-26 18:45:28.872
21.0, 187500.0, 187500.0, 187500.0, -182299.44196932818, 187500.0, 17512.614132477538, -181861.63835068207, -181843.04169929525, 0.052000000000000005, 0.016, 0.978, 192.0, 0.0, 0.0, 0.0, 0.0, 0.0, 0.0, 0.0, 0.0, 0.0, 1.708991128875377E9, 0.0, 2024-02-26 18:45:28.875
22.0, 187500.0, 187500.0, 187500.0, -182409.18903460374, 187500.0, 18298.322653570493, -181979.72261663945, -181961.46124141949, 0.052000000000000005, 0.016, 0.978, 192.0, 0.0, 0.0, 0.0, 0.0, 0.0, 0.0, 0.0, 0.0, 0.0, 1.708991128879383E9, 0.0, 2024-02-26 18:45:28.879
23.0, 187500.0, 187500.0, 187500.0, -182267.79189917946, 187500.0, 17549.874490484537, -181884.8394614267, -181856.96683609093, 0.052000000000000005, 0.016, 0.978, 192.0, 0.0, 0.0, 0.0, 0.0, 0.0, 0.0, 0.0, 0.0, 0.0, 1.708991128882433E9, 0.0, 2024-02-26 18:45:28.882
24.0, 187500.0, 187500.0, 187500.0, -182145.37139479775, 187500.0, 17014.907838691215, -181806.38483838856, -181787.2070416459, 0.052000000000000005, 0.016, 0.978, 192.0, 0.0, 0.0, 0.0, 0.0, 0.0, 0.0, 0.0, 0.0, 0.0, 1.708991128886408E9, 0.0, 2024-02-26 18:45:28.886
25.0, 187500.0, 187500.0, 187500.0, -182198.36738090127, 187500.0, 17405.661035258894, -181850.50718194334, -181834.7715538468, 0.052000000000000005, 0.016, 0.978, 192.0, 0.0, 0.0, 0.0, 0.0, 0.0, 0.0, 0.0, 0.0, 0.0, 1.708991128890412E9, 0.0, 2024-02-26 18:45:28.890
26.0, 187500.0, 187500.0, 187500.0, -182335.60709185686, 187500.0, 18307.598627519445, -181998.11810232617, -181981.53310794034, 0.052000000000000005, 0.016, 0.978, 192.0, 0.0, 0.0, 0.0, 0.0, 0.0, 0.0, 0.0, 0.0, 0.0, 1.708991128894409E9, 0.0, 2024-02-26 18:45:28.894
27.0, 187500.0, 187500.0, 187500.0, -182242.40031747823, 187500.0, 17766.79817042329, -181909.62754602762, -181892.46140628593, 0.052000000000000005, 0.016, 0.978, 192.0, 0.0, 0.0, 0.0, 0.0, 0.0, 0.0, 0.0, 0.0, 0.0, 1.708991128898407E9, 0.0, 2024-02-26 18:45:28.898
28.0, 187500.0, 187500.0, 187500.0, -182131.60272021327, 187500.0, 17059.790141557474, -181803.63557382056, -181785.19538464493, 0.054, 0.016, 0.976, 192.0, 1.0, 176.0, 0.0, 128.0, 30.0, 128.0, 0.0, 0.0, 0.0, 1.708991128902416E9, 0.0, 2024-02-26 18:45:28.902
29.0, 187500.0, 187500.0, 187500.0, -182162.51518279497, 187500.0, 17256.686658464274, -181843.2205132509, -181824.08741999717, 0.054, 0.016, 0.976, 192.0, 0.0, 0.0, 0.0, 0.0, 0.0, 0.0, 0.0, 0.0, 0.0, 1.70899112890541E9, 0.0, 2024-02-26 18:45:28.905
30.0, 187500.0, 187500.0, 187500.0, -182315.35641138034, 187500.0, 18198.41035585527, -182006.96939313048, -181988.55155569932, 0.054, 0.016, 0.976, 192.0, 0.0, 0.0, 0.0, 0.0, 0.0, 0.0, 0.0, 0.0, 0.0, 1.708991128910421E9, 0.0, 2024-02-26 18:45:28.910
31.0, 187500.0, 187500.0, 187500.0, -182281.09118713037, 187500.0, 17955.446893626082, -181980.16965152856, -181960.03072977433, 0.054, 0.016, 0.976, 192.0, 0.0, 0.0, 0.0, 0.0, 0.0, 0.0, 0.0, 0.0, 0.0, 1.708991128914424E9, 0.0, 2024-02-26 18:45:28.914
32.0, 187500.0, 187500.0, 187500.0, -182132.38503126922, 187500.0, 17129.706398213675, -181835.75503060283, -181813.98443150337, 0.054, 0.016, 0.976, 192.0, 0.0, 0.0, 0.0, 0.0, 0.0, 0.0, 0.0, 0.0, 0.0, 1.708991128918478E9, 0.0, 2024-02-26 18:45:28.918
33.0, 187500.0, 187500.0, 187500.0, -182126.73003992203, 187500.0, 17199.68971010324, -181836.96202480342, -181814.25265243681, 0.054, 0.016, 0.976, 192.0, 0.0, 0.0, 0.0, 0.0, 0.0, 0.0, 0.0, 0.0, 0.0, 1.708991128922476E9, 0.0, 2024-02-26 18:45:28.922
34.0, 187500.0, 187500.0, 187500.0, -182262.13690783226, 187500.0, 18115.328921714892, -181983.03067481885, -181960.03072977433, 0.054, 0.016, 0.976, 192.0, 0.0, 0.0, 0.0, 0.0, 0.0, 0.0, 0.0, 0.0, 0.0, 1.708991128927466E9, 0.0, 2024-02-26 18:45:28.927
35.0, 187500.0, 187500.0, 187500.0, -182281.40411155275, 187500.0, 18187.25683537207, -182010.9480036435, -181986.27167776486, 0.054, 0.016, 0.976, 192.0, 0.0, 0.0, 0.0, 0.0, 0.0, 0.0, 0.0, 0.0, 0.0, 1.708991128930476E9, 0.0, 2024-02-26 18:45:28.930
36.0, 187500.0, 187500.0, 187500.0, -182113.16253103764, 187500.0, 17240.97338211219, -181847.4226412085, -181821.5169693848, 0.054, 0.016, 0.976, 192.0, 0.0, 0.0, 0.0, 0.0, 0.0, 0.0, 0.0, 0.0, 0.0, 1.708991128935464E9, 0.0, 2024-02-26 18:45:28.935
37.0, 187500.0, 187500.0, 187500.0, -182091.5707458938, 187500.0, 17138.96002041817, -181833.8774840686, -181807.6588878225, 0.054, 0.016, 0.976, 192.0, 0.0, 0.0, 0.0, 0.0, 0.0, 0.0, 0.0, 0.0, 0.0, 1.708991128938461E9, 0.0, 2024-02-26 18:45:28.938
38.0, 187500.0, 187500.0, 187500.0, -182224.38481144726, 187500.0, 17923.55095428836, -181976.48161369344, -181950.1512587251, 0.058, 0.012, 0.978, 192.0, 1.0, 208.0, 0.0, 96.0, 30.0, 144.0, 0.0, 0.0, 0.0, 1.70899112894246E9, 0.0, 2024-02-26 18:45:28.942
39.0, 187500.0, 187500.0, 187500.0, -182283.30400983145, 187500.0, 18282.85524640742, -182043.4250883371, -182017.29589906882, 0.058, 0.012, 0.978, 192.0, 0.0, 0.0, 0.0, 0.0, 0.0, 0.0, 0.0, 0.0, 0.0, 1.708991128946457E9, 0.0, 2024-02-26 18:45:28.946
40.0, 187500.0, 187500.0, 187500.0, -182119.10809506275, 187500.0, 17336.28122046962, -181883.185432337, -181855.2234000234, 0.058, 0.012, 0.978, 192.0, 0.0, 0.0, 0.0, 0.0, 0.0, 0.0, 0.0, 0.0, 0.0, 1.708991128950461E9, 0.0, 2024-02-26 18:45:28.950
41.0, 187500.0, 187500.0, 187500.0, -182046.15200116063, 187500.0, 17071.636566118785, -181816.9572135159, -181786.53648931225, 0.058, 0.012, 0.978, 192.0, 0.0, 0.0, 0.0, 0.0, 0.0, 0.0, 0.0, 0.0, 0.0, 1.708991128955459E9, 0.0, 2024-02-26 18:45:28.955
42.0, 187500.0, 187500.0, 187500.0, -182143.1362203522, 187500.0, 17729.157832760553, -181923.44092410099, -181892.66257198603, 0.058, 0.012, 0.978, 192.0, 0.0, 0.0, 0.0, 0.0, 0.0, 0.0, 0.0, 0.0, 0.0, 1.708991128958461E9, 0.0, 2024-02-26 18:45:28.958
43.0, 187500.0, 187500.0, 187500.0, -182240.90275059972, 187500.0, 18354.44788389777, -182029.5670067748, -181999.16863431557, 0.058, 0.012, 0.978, 192.0, 0.0, 0.0, 0.0, 0.0, 0.0, 0.0, 0.0, 0.0, 0.0, 1.70899112896146E9, 0.0, 2024-02-26 18:45:28.961
44.0, 187500.0, 187500.0, 187500.0, -182094.69999011757, 187500.0, 17487.758992643237, -181887.61107773913, -181857.68209191348, 0.058, 0.012, 0.978, 192.0, 0.0, 0.0, 0.0, 0.0, 0.0, 0.0, 0.0, 0.0, 0.0, 1.708991128966533E9, 0.0, 2024-02-26 18:45:28.966
45.0, 187500.0, 187500.0, 187500.0, -182012.5126257554, 187500.0, 17050.08948446387, -181812.03982973576, -181788.23522189085, 0.058, 0.012, 0.978, 192.0, 0.0, 0.0, 0.0, 0.0, 0.0, 0.0, 0.0, 0.0, 0.0, 1.708991128970504E9, 0.0, 2024-02-26 18:45:28.970
46.0, 187500.0, 187500.0, 187500.0, -182077.6232573537, 187500.0, 17518.917324413935, -181886.11351086062, -181861.19131579297, 0.058, 0.012, 0.978, 192.0, 0.0, 0.0, 0.0, 0.0, 0.0, 0.0, 0.0, 0.0, 0.0, 1.708991128974507E9, 0.0, 2024-02-26 18:45:28.974
47.0, 187500.0, 187500.0, 187500.0, -182197.54036635644, 187500.0, 18318.729796258187, -182017.0053263909, -181991.56904120077, 0.058, 0.012, 0.978, 192.0, 0.0, 0.0, 0.0, 0.0, 0.0, 0.0, 0.0, 0.0, 0.0, 1.708991128978509E9, 0.0, 2024-02-26 18:45:28.978
48.0, 187500.0, 187500.0, 187500.0, -182087.39096968068, 187500.0, 17597.1037265186, -181912.37681059563, -181885.24179282688, 0.052000000000000005, 0.016, 0.974, 192.0, 1.0, 160.0, 0.0, 128.0, 30.0, 112.0, 0.0, 0.0, 0.0, 1.708991128982516E9, 0.0, 2024-02-26 18:45:28.982
49.0, 187500.0, 187500.0, 187500.0, -181990.18323304455, 187500.0, 16982.02842259746, -181820.57819611768, -181791.18565215895, 0.052000000000000005, 0.016, 0.974, 192.0, 0.0, 0.0, 0.0, 0.0, 0.0, 0.0, 0.0, 0.0, 0.0, 1.708991128986509E9, 0.0, 2024-02-26 18:45:28.986
50.0, 187500.0, 187500.0, 187500.0, -182031.13162888668, 187500.0, 17278.501961052654, -181870.19906880846, -181838.83957133765, 0.052000000000000005, 0.016, 0.974, 192.0, 0.0, 0.0, 0.0, 0.0, 0.0, 0.0, 0.0, 0.0, 0.0, 1.708991128989516E9, 0.0, 2024-02-26 18:45:28.989
51.0, 187500.0, 187500.0, 187500.0, -182155.67554899162, 187500.0, 18183.524094048036, -182004.48834949595, -181972.92768632504, 0.052000000000000005, 0.016, 0.974, 192.0, 0.0, 0.0, 0.0, 0.0, 0.0, 0.0, 0.0, 0.0, 0.0, 1.708991128994525E9, 0.0, 2024-02-26 18:45:28.994
52.0, 187500.0, 187500.0, 187500.0, -182080.976019022, 187500.0, 17734.87987934111, -181935.98025274044, -181903.61492676914, 0.052000000000000005, 0.016, 0.974, 192.0, 0.0, 0.0, 0.0, 0.0, 0.0, 0.0, 0.0, 0.0, 0.0, 1.708991128998506E9, 0.0, 2024-02-26 18:45:28.998
53.0, 187500.0, 187500.0, 187500.0, -181962.06473851978, 187500.0, 16992.511390747, -181823.1262949856, -181794.91839348298, 0.052000000000000005, 0.016, 0.974, 192.0, 0.0, 0.0, 0.0, 0.0, 0.0, 0.0, 0.0, 0.0, 0.0, 1.708991129002505E9, 0.0, 2024-02-26 18:45:29.002
54.0, 187500.0, 187500.0, 187500.0, -181961.43888967502, 187500.0, 17142.469244297656, -181831.2176264784, -181804.7531610433, 0.052000000000000005, 0.016, 0.974, 192.0, 0.0, 0.0, 0.0, 0.0, 0.0, 0.0, 0.0, 0.0, 0.0, 1.708991129006515E9, 0.0, 2024-02-26 18:45:29.006
55.0, 187500.0, 187500.0, 187500.0, -182092.26364997192, 187500.0, 18072.033592704964, -181972.5030031804, -181943.82571504425, 0.052000000000000005, 0.016, 0.974, 192.0, 0.0, 0.0, 0.0, 0.0, 0.0, 0.0, 0.0, 0.0, 0.0, 1.708991129011543E9, 0.0, 2024-02-26 18:45:29.011
56.0, 187500.0, 187500.0, 187500.0, -182062.82640252428, 187500.0, 17915.034939650886, -181949.61481685817, -181920.89282523308, 0.052000000000000005, 0.016, 0.974, 192.0, 0.0, 0.0, 0.0, 0.0, 0.0, 0.0, 0.0, 0.0, 0.0, 1.708991129014535E9, 0.0, 2024-02-26 18:45:29.014
57.0, 187500.0, 187500.0, 187500.0, -181936.06965971825, 187500.0, 17069.915481795728, -181827.39547817654, -181805.3566581436, 0.052000000000000005, 0.016, 0.974, 192.0, 0.0, 0.0, 0.0, 0.0, 0.0, 0.0, 0.0, 0.0, 0.0, 1.70899112901756E9, 0.0, 2024-02-26 18:45:29.017
58.0, 187500.0, 187500.0, 187500.0, -181938.41659288606, 187500.0, 17080.934891812194, -181837.0737835257, -181813.4703413809, 0.056, 0.014, 0.976, 192.0, 1.0, 192.0, 0.0, 112.0, 30.0, 128.0, 0.0, 0.0, 0.0, 1.708991129021555E9, 0.0, 2024-02-26 18:45:29.021
59.0, 187500.0, 187500.0, 187500.0, -182069.08489097178, 187500.0, 17940.85120449677, -181977.57684917175, -181953.5934273712, 0.056, 0.014, 0.976, 192.0, 0.0, 0.0, 0.0, 0.0, 0.0, 0.0, 0.0, 0.0, 0.0, 1.708991129026538E9, 0.0, 2024-02-26 18:45:29.026
60.0, 187500.0, 187500.0, 187500.0, -182087.86035631422, 187500.0, 18085.57874984488, -182003.59427971774, -181978.94030558353, 0.056, 0.014, 0.976, 192.0, 0.0, 0.0, 0.0, 0.0, 0.0, 0.0, 0.0, 0.0, 0.0, 1.708991129030547E9, 0.0, 2024-02-26 18:45:29.030
61.0, 187500.0, 187500.0, 187500.0, -181928.76063928136, 187500.0, 17146.291392599513, -181848.98726332036, -181827.39547817654, 0.056, 0.014, 0.976, 192.0, 0.0, 0.0, 0.0, 0.0, 0.0, 0.0, 0.0, 0.0, 0.0, 1.708991129034547E9, 0.0, 2024-02-26 18:45:29.034
62.0, 187500.0, 187500.0, 187500.0, -181893.3331243197, 187500.0, 16992.533742491454, -181821.24874845133, -181802.6073935756, 0.056, 0.014, 0.976, 192.0, 0.0, 0.0, 0.0, 0.0, 0.0, 0.0, 0.0, 0.0, 0.0, 1.708991129037559E9, 0.0, 2024-02-26 18:45:29.037
63.0, 187500.0, 187500.0, 187500.0, -182012.98201238897, 187500.0, 17732.063559539743, -181951.11238373668, -181930.12409569314, 0.056, 0.014, 0.976, 192.0, 0.0, 0.0, 0.0, 0.0, 0.0, 0.0, 0.0, 0.0, 0.0, 1.708991129041573E9, 0.0, 2024-02-26 18:45:29.041
64.0, 187500.0, 187500.0, 187500.0, -182074.53871661887, 187500.0, 18156.344372790383, -182021.67684098208, -182000.57679421626, 0.056, 0.014, 0.976, 192.0, 0.0, 0.0, 0.0, 0.0, 0.0, 0.0, 0.0, 0.0, 0.0, 1.708991129045568E9, 0.0, 2024-02-26 18:45:29.045
65.0, 187500.0, 187500.0, 187500.0, -181910.16398789454, 187500.0, 17199.913227547793, -181866.91336237354, -181850.52953368778, 0.056, 0.014, 0.976, 192.0, 0.0, 0.0, 0.0, 0.0, 0.0, 0.0, 0.0, 0.0, 0.0, 1.70899112905059E9, 0.0, 2024-02-26 18:45:29.050
66.0, 187500.0, 187500.0, 187500.0, -181842.66171963952, 187500.0, 16861.261947305436, -181813.17976870298, -181804.23907092086, 0.056, 0.014, 0.976, 192.0, 0.0, 0.0, 0.0, 0.0, 0.0, 0.0, 0.0, 0.0, 0.0, 1.708991129054585E9, 0.0, 2024-02-26 18:45:29.054
67.0, 187500.0, 187500.0, 187500.0, -181921.49632233338, 187500.0, 17426.045826202135, -181897.46819704393, -181886.5381940053, 0.056, 0.014, 0.976, 192.0, 0.0, 0.0, 0.0, 0.0, 0.0, 0.0, 0.0, 0.0, 0.0, 1.708991129058596E9, 0.0, 2024-02-26 18:45:29.058
68.0, 187500.0, 187500.0, 187500.0, -182011.48444551046, 187500.0, 18092.798363303944, -181997.84988139273, -181985.5564219423, 0.054, 0.014, 0.98, 192.0, 1.0, 176.0, 0.0, 112.0, 30.0, 160.0, 0.0, 0.0, 0.0, 1.70899112906259E9, 0.0, 2024-02-26 18:45:29.062
69.0, 187500.0, 187500.0, 187500.0, -181840.85122833864, 187500.0, 17267.929585925292, -181898.92106043352, -181876.6810747005, 0.054, 0.014, 0.98, 192.0, 0.0, 0.0, 0.0, 0.0, 0.0, 0.0, 0.0, 0.0, 0.0, 1.708991129065592E9, 0.0, 2024-02-26 18:45:29.065
70.0, 187500.0, 187500.0, 187500.0, -181617.49024599674, 187500.0, 16786.5624173358, -181843.80165860674, -181818.05244899422, 0.054, 0.014, 0.98, 192.0, 0.0, 0.0, 0.0, 0.0, 0.0, 0.0, 0.0, 0.0, 0.0, 1.70899112906959E9, 0.0, 2024-02-26 18:45:29.069
71.0, 187500.0, 187500.0, 187500.0, -181898.85400520015, 187500.0, 17223.69548364824, -181866.19810655096, -181847.48969644186, 0.054, 0.014, 0.98, 192.0, 0.0, 0.0, 0.0, 0.0, 0.0, 0.0, 0.0, 0.0, 0.0, 1.708991129073592E9, 0.0, 2024-02-26 18:45:29.073
73.0, 187500.0, 187500.0, 187500.0, -182431.18315114776, 187500.0, 17459.21581497381, -181918.12120892064, -181894.85304294265, 0.054, 0.014, 0.98, 192.0, 0.0, 0.0, 0.0, 0.0, 0.0, 0.0, 0.0, 0.0, 0.0, 1.708991129082593E9, 0.0, 2024-02-26 18:45:29.082
74.0, 187500.0, 187500.0, 187500.0, -182299.3749140948, 187500.0, 16807.193077468048, -181845.99212956335, -181824.48975139734, 0.054, 0.014, 0.98, 192.0, 0.0, 0.0, 0.0, 0.0, 0.0, 0.0, 0.0, 0.0, 0.0, 1.708991129086649E9, 0.0, 2024-02-26 18:45:29.086
75.0, 187500.0, 187500.0, 187500.0, -182316.36223988084, 187500.0, 17065.132208482293, -181859.11260355863, -181844.4722109404, 0.054, 0.014, 0.98, 192.0, 0.0, 0.0, 0.0, 0.0, 0.0, 0.0, 0.0, 0.0, 0.0, 1.70899112909074E9, 0.0, 2024-02-26 18:45:29.090
76.0, 187500.0, 187500.0, 187500.0, -182447.3211106445, 187500.0, 17992.03669929942, -181997.87223313717, -181983.27654400785, 0.054, 0.014, 0.98, 192.0, 0.0, 0.0, 0.0, 0.0, 0.0, 0.0, 0.0, 0.0, 0.0, 1.70899112909363E9, 0.0, 2024-02-26 18:45:29.093
77.0, 187500.0, 187500.0, 187500.0, -182372.4874702081, 187500.0, 17625.669255932484, -181937.5895783412, -181919.41761009904, 0.054, 0.014, 0.98, 192.0, 0.0, 0.0, 0.0, 0.0, 0.0, 0.0, 0.0, 0.0, 0.0, 1.708991129097628E9, 0.0, 2024-02-26 18:45:29.097
78.0, 187500.0, 187500.0, 187500.0, -182219.8474073228, 187500.0, 16852.90239487915, -181843.3769754621, -181813.29152742526, 0.054, 0.016, 0.976, 192.0, 1.0, 176.0, 0.0, 128.0, 30.0, 128.0, 0.0, 0.0, 0.0, 1.708991129101652E9, 0.0, 2024-02-26 18:45:29.101
79.0, 187500.0, 187500.0, 187500.0, -182203.91061352618, 187500.0, 16980.642614441233, -181827.73075434339, -181803.54616684275, 0.054, 0.016, 0.976, 192.0, 0.0, 0.0, 0.0, 0.0, 0.0, 0.0, 0.0, 0.0, 0.0, 1.708991129105638E9, 0.0, 2024-02-26 18:45:29.105
80.0, 187500.0, 187500.0, 187500.0, -182328.74510630907, 187500.0, 17922.58982927678, -181957.66144486208, -181935.2873486623, 0.054, 0.016, 0.976, 192.0, 0.0, 0.0, 0.0, 0.0, 0.0, 0.0, 0.0, 0.0, 0.0, 1.708991129110659E9, 0.0, 2024-02-26 18:45:29.110
81.0, 187500.0, 187500.0, 187500.0, -182298.39143733878, 187500.0, 17882.177875301586, -181946.41851740106, -181921.00458395536, 0.054, 0.016, 0.976, 192.0, 0.0, 0.0, 0.0, 0.0, 0.0, 0.0, 0.0, 0.0, 0.0, 1.708991129114669E9, 0.0, 2024-02-26 18:45:29.114
82.0, 187500.0, 187500.0, 187500.0, -182123.33257476482, 187500.0, 17017.970027681593, -181847.10971678613, -181821.58402461818, 0.054, 0.016, 0.976, 192.0, 0.0, 0.0, 0.0, 0.0, 0.0, 0.0, 0.0, 0.0, 0.0, 1.708991129118636E9, 0.0, 2024-02-26 18:45:29.118
83.0, 187500.0, 187500.0, 187500.0, -182087.54743189187, 187500.0, 17002.815544940895, -181813.671507081, -181798.09234119565, 0.054, 0.016, 0.976, 192.0, 0.0, 0.0, 0.0, 0.0, 0.0, 0.0, 0.0, 0.0, 0.0, 1.70899112912163E9, 0.0, 2024-02-26 18:45:29.121
84.0, 187500.0, 187500.0, 187500.0, -182208.760942073, 187500.0, 17851.9136133091, -181935.86849401816, -181920.55754906626, 0.054, 0.016, 0.976, 192.0, 0.0, 0.0, 0.0, 0.0, 0.0, 0.0, 0.0, 0.0, 0.0, 1.708991129125635E9, 0.0, 2024-02-26 18:45:29.125
85.0, 187500.0, 187500.0, 187500.0, -182236.05242205292, 187500.0, 18097.82750580639, -181976.8615933492, -181959.78486058532, 0.054, 0.016, 0.976, 192.0, 0.0, 0.0, 0.0, 0.0, 0.0, 0.0, 0.0, 0.0, 0.0, 1.708991129129644E9, 0.0, 2024-02-26 18:45:29.129
86.0, 187500.0, 187500.0, 187500.0, -182055.89736174315, 187500.0, 17144.883232698827, -181857.99501633586, -181832.64813812354, 0.054, 0.016, 0.976, 192.0, 0.0, 0.0, 0.0, 0.0, 0.0, 0.0, 0.0, 0.0, 0.0, 1.708991129133647E9, 0.0, 2024-02-26 18:45:29.133
87.0, 187500.0, 187500.0, 187500.0, -182002.94607912854, 187500.0, 16934.128634229735, -181820.9134722845, -181805.5131203548, 0.054, 0.016, 0.976, 192.0, 0.0, 0.0, 0.0, 0.0, 0.0, 0.0, 0.0, 0.0, 0.0, 1.708991129138683E9, 0.0, 2024-02-26 18:45:29.138
88.0, 187500.0, 187500.0, 187500.0, -182100.06440878683, 187500.0, 17611.67706390346, -181914.74609550787, -181900.61979301213, 0.056, 0.014, 0.974, 192.0, 1.0, 192.0, 0.0, 112.0, 30.0, 112.0, 0.0, 0.0, 0.0, 1.708991129142686E9, 0.0, 2024-02-26 18:45:29.142
89.0, 187500.0, 187500.0, 187500.0, -182166.87377296374, 187500.0, 18112.087918768873, -181990.18323304455, -181975.2522677484, 0.056, 0.014, 0.974, 192.0, 0.0, 0.0, 0.0, 0.0, 0.0, 0.0, 0.0, 0.0, 0.0, 1.708991129145644E9, 0.0, 2024-02-26 18:45:29.145
90.0, 187500.0, 187500.0, 187500.0, -182008.0646286088, 187500.0, 17191.35250942141, -181853.21174302243, -181832.93871080145, 0.056, 0.014, 0.974, 192.0, 0.0, 0.0, 0.0, 0.0, 0.0, 0.0, 0.0, 0.0, 0.0, 1.708991129149691E9, 0.0, 2024-02-26 18:45:29.149
91.0, 187500.0, 187500.0, 187500.0, -181946.2844069343, 187500.0, 16828.650752145142, -181823.08159149668, -181801.86978600858, 0.056, 0.014, 0.974, 192.0, 0.0, 0.0, 0.0, 0.0, 0.0, 0.0, 0.0, 0.0, 0.0, 1.708991129153695E9, 0.0, 2024-02-26 18:45:29.153
92.0, 187500.0, 187500.0, 187500.0, -182012.62438447768, 187500.0, 17353.603822422483, -181887.45461552797, -181870.1320135751, 0.056, 0.014, 0.974, 192.0, 0.0, 0.0, 0.0, 0.0, 0.0, 0.0, 0.0, 0.0, 0.0, 1.708991129157711E9, 0.0, 2024-02-26 18:45:29.157
93.0, 187500.0, 187500.0, 187500.0, -182118.68341191811, 187500.0, 18099.503886640538, -182002.92372738407, -181985.48936670893, 0.056, 0.014, 0.974, 192.0, 0.0, 0.0, 0.0, 0.0, 0.0, 0.0, 0.0, 0.0, 0.0, 1.708991129161703E9, 0.0, 2024-02-26 18:45:29.161
94.0, 187500.0, 187500.0, 187500.0, -181994.2065470465, 187500.0, 17336.080054769525, -181891.85790918564, -181871.78604266478, 0.056, 0.014, 0.974, 192.0, 0.0, 0.0, 0.0, 0.0, 0.0, 0.0, 0.0, 0.0, 0.0, 1.708991129166692E9, 0.0, 2024-02-26 18:45:29.166
95.0, 187500.0, 187500.0, 187500.0, -181882.89485965908, 187500.0, 16815.195001983047, -181818.5218356278, -181793.3090678822, 0.056, 0.014, 0.974, 192.0, 0.0, 0.0, 0.0, 0.0, 0.0, 0.0, 0.0, 0.0, 0.0, 1.708991129170729E9, 0.0, 2024-02-26 18:45:29.170
96.0, 187500.0, 187500.0, 187500.0, -181921.16104616656, 187500.0, 17197.856867057904, -181856.54215294626, -181834.10100151313, 0.056, 0.014, 0.974, 192.0, 0.0, 0.0, 0.0, 0.0, 0.0, 0.0, 0.0, 0.0, 0.0, 1.708991129173702E9, 0.0, 2024-02-26 18:45:29.173
97.0, 187500.0, 187500.0, 187500.0, -182044.69913777104, 187500.0, 18083.768258544, -181988.05981732128, -181965.43985193252, 0.056, 0.014, 0.974, 192.0, 0.0, 0.0, 0.0, 0.0, 0.0, 0.0, 0.0, 0.0, 0.0, 1.708991129177704E9, 0.0, 2024-02-26 18:45:29.177
98.0, 187500.0, 187500.0, 187500.0, -181938.5954068417, 187500.0, 17520.772519203725, -181907.34766809316, -181880.0338363688, 0.054, 0.016, 0.972, 192.0, 1.0, 176.0, 0.0, 128.0, 30.0, 96.0, 0.0, 0.0, 0.0, 1.708991129182728E9, 0.0, 2024-02-26 18:45:29.182
99.0, 187500.0, 187500.0, 187500.0, -181802.1156551976, 187500.0, 16838.53022319439, -181837.36435620362, -181801.78037903077, 0.054, 0.016, 0.972, 192.0, 0.0, 0.0, 0.0, 0.0, 0.0, 0.0, 0.0, 0.0, 0.0, 1.708991129186738E9, 0.0, 2024-02-26 18:45:29.186
100.0, 187500.0, 187500.0, 187500.0, -181822.09811474063, 187500.0, 17063.99226951507, -181846.9756063194, -181818.29831818322, 0.054, 0.016, 0.972, 192.0, 0.0, 0.0, 0.0, 0.0, 0.0, 0.0, 0.0, 0.0, 0.0, 1.708991129189738E9, 0.0, 2024-02-26 18:45:29.189
101.0, 187500.0, 187500.0, 187500.0, -181964.07639552074, 187500.0, 18004.106641305287, -181996.21820404747, -181967.71972986695, 0.054, 0.016, 0.972, 192.0, 0.0, 0.0, 0.0, 0.0, 0.0, 0.0, 0.0, 0.0, 0.0, 1.708991129193718E9, 0.0, 2024-02-26 18:45:29.193
102.0, 187500.0, 187500.0, 187500.0, -181910.47691231692, 187500.0, 17718.27253321082, -181958.6002181292, -181929.81117127076, 0.054, 0.016, 0.972, 192.0, 0.0, 0.0, 0.0, 0.0, 0.0, 0.0, 0.0, 0.0, 0.0, 1.708991129197719E9, 0.0, 2024-02-26 18:45:29.197
103.0, 187500.0, 187500.0, 187500.0, -181630.8789409255, 187500.0, 16894.119011654737, -181833.20693173492, -181811.07870472418, 0.054, 0.016, 0.972, 192.0, 0.0, 0.0, 0.0, 0.0, 0.0, 0.0, 0.0, 0.0, 0.0, 1.708991129201724E9, 0.0, 2024-02-26 18:45:29.201
104.0, 187500.0, 187500.0, 187500.0, -181702.35981969355, 187500.0, 16984.956501121105, -181828.6695276105, -181811.905719269, 0.054, 0.016, 0.972, 192.0, 0.0, 0.0, 0.0, 0.0, 0.0, 0.0, 0.0, 0.0, 0.0, 1.708991129205735E9, 0.0, 2024-02-26 18:45:29.205
105.0, 187500.0, 187500.0, 187500.0, -182259.23118105307, 187500.0, 17908.061195380833, -181966.7139013665, -181948.4972296354, 0.054, 0.016, 0.972, 192.0, 0.0, 0.0, 0.0, 0.0, 0.0, 0.0, 0.0, 0.0, 0.0, 1.708991129210739E9, 0.0, 2024-02-26 18:45:29.210
106.0, 187500.0, 187500.0, 187500.0, -182476.37837843638, 187500.0, 17939.42069285163, -181971.72069212445, -181951.62647385913, 0.054, 0.016, 0.972, 192.0, 0.0, 0.0, 0.0, 0.0, 0.0, 0.0, 0.0, 0.0, 0.0, 1.70899112921377E9, 0.0, 2024-02-26 18:45:29.213
107.0, 187500.0, 187500.0, 187500.0, -182330.44383888767, 187500.0, 17035.918478479205, -181826.25553920932, -181808.03886747826, 0.054, 0.02, 0.97, 192.0, 1.0, 176.0, 0.0, 160.0, 30.0, 80.0, 0.0, 0.0, 0.0, 1.708991129217761E9, 0.0, 2024-02-26 18:45:29.217
108.0, 187500.0, 187500.0, 187500.0, -182310.528434578, 187500.0, 16952.92645131665, -181813.1127134696, -181799.38874237405, 0.054, 0.02, 0.97, 192.0, 0.0, 0.0, 0.0, 0.0, 0.0, 0.0, 0.0, 0.0, 0.0, 1.708991129221761E9, 0.0, 2024-02-26 18:45:29.221
109.0, 187500.0, 187500.0, 187500.0, -182440.2132559077, 187500.0, 17757.410437752063, -181953.16874422657, -181937.81309578576, 0.054, 0.02, 0.97, 192.0, 0.0, 0.0, 0.0, 0.0, 0.0, 0.0, 0.0, 0.0, 0.0, 1.708991129225775E9, 0.0, 2024-02-26 18:45:29.225
110.0, 187500.0, 187500.0, 187500.0, -182509.5707189525, 187500.0, 18098.945093029153, -182031.1763323756, -182016.37947754617, 0.054, 0.02, 0.97, 192.0, 0.0, 0.0, 0.0, 0.0, 0.0, 0.0, 0.0, 0.0, 0.0, 1.708991129229778E9, 0.0, 2024-02-26 18:45:29.229
111.0, 187500.0, 187500.0, 187500.0, -182372.21924927464, 187500.0, 17168.754895777096, -181899.5916127672, -181883.34189454818, 0.054, 0.02, 0.97, 192.0, 0.0, 0.0, 0.0, 0.0, 0.0, 0.0, 0.0, 0.0, 0.0, 1.708991129233766E9, 0.0, 2024-02-26 18:45:29.233
112.0, 187500.0, 187500.0, 187500.0, -182343.11727799385, 187500.0, 16933.21221270707, -181878.0221793678, -181860.76663264833, 0.054, 0.02, 0.97, 192.0, 0.0, 0.0, 0.0, 0.0, 0.0, 0.0, 0.0, 0.0, 0.0, 1.708991129238787E9, 0.0, 2024-02-26 18:45:29.238
113.0, 187500.0, 187500.0, 187500.0, -182437.2181221507, 187500.0, 17580.026993754745, -181982.06954980726, -181963.67406412054, 0.054, 0.02, 0.97, 192.0, 0.0, 0.0, 0.0, 0.0, 0.0, 0.0, 0.0, 0.0, 0.0, 1.708991129241775E9, 0.0, 2024-02-26 18:45:29.241
114.0, 187500.0, 187500.0, 187500.0, -182537.73391696622, 187500.0, 18202.098393690398, -182091.973077294, -182072.48235612898, 0.054, 0.02, 0.97, 192.0, 0.0, 0.0, 0.0, 0.0, 0.0, 0.0, 0.0, 0.0, 0.0, 1.70899112924577E9, 0.0, 2024-02-26 18:45:29.245
115.0, 187500.0, 187500.0, 187500.0, -182400.15892984378, 187500.0, 17347.39003746391, -181959.0919565072, -181937.52252310785, 0.054, 0.02, 0.97, 192.0, 0.0, 0.0, 0.0, 0.0, 0.0, 0.0, 0.0, 0.0, 0.0, 1.708991129251124E9, 0.0, 2024-02-26 18:45:29.251
116.0, 187500.0, 187500.0, 187500.0, -182330.22032144314, 187500.0, 16959.140236275227, -181894.92009817602, -181872.7248159319, 0.054, 0.02, 0.97, 192.0, 0.0, 0.0, 0.0, 0.0, 0.0, 0.0, 0.0, 0.0, 0.0, 1.708991129253827E9, 0.0, 2024-02-26 18:45:29.253
117.0, 187500.0, 187500.0, 187500.0, -182429.9985086916, 187500.0, 17500.521838727218, -182004.26483205138, -181982.58363992974, 0.05, 0.02, 0.974, 192.0, 1.0, 144.0, 0.0, 160.0, 30.0, 112.0, 0.0, 0.0, 0.0, 1.708991129257822E9, 0.0, 2024-02-26 18:45:29.257
118.0, 187500.0, 187500.0, 187500.0, -182552.79899272908, 187500.0, 18329.458633596736, -182138.26354006096, -182116.00120258346, 0.05, 0.02, 0.974, 192.0, 0.0, 0.0, 0.0, 0.0, 0.0, 0.0, 0.0, 0.0, 0.0, 1.708991129261814E9, 0.0, 2024-02-26 18:45:29.261
119.0, 187500.0, 187500.0, 187500.0, -182399.75659844358, 187500.0, 17634.945229881436, -181990.94319235603, -181966.199811244, 0.05, 0.02, 0.974, 192.0, 0.0, 0.0, 0.0, 0.0, 0.0, 0.0, 0.0, 0.0, 0.0, 1.708991129266815E9, 0.0, 2024-02-26 18:45:29.266
120.0, 187500.0, 187500.0, 187500.0, -182288.1766901227, 187500.0, 17098.749232143073, -181885.1300341046, -181859.35847274764, 0.05, 0.02, 0.974, 192.0, 0.0, 0.0, 0.0, 0.0, 0.0, 0.0, 0.0, 0.0, 0.0, 1.708991129269821E9, 0.0, 2024-02-26 18:45:29.269
121.0, 187500.0, 187500.0, 187500.0, -182324.85590277385, 187500.0, 17458.746428340248, -181929.94528173748, -181903.6372785136, 0.05, 0.02, 0.974, 192.0, 0.0, 0.0, 0.0, 0.0, 0.0, 0.0, 0.0, 0.0, 0.0, 1.708991129273825E9, 0.0, 2024-02-26 18:45:29.273
122.0, 187500.0, 187500.0, 187500.0, -182458.5640381055, 187500.0, 18386.857913357962, -182073.44348114057, -182046.93431221656, 0.05, 0.02, 0.974, 192.0, 0.0, 0.0, 0.0, 0.0, 0.0, 0.0, 0.0, 0.0, 0.0, 1.708991129277816E9, 0.0, 2024-02-26 18:45:29.277
123.0, 187500.0, 187500.0, 187500.0, -182374.7449963981, 187500.0, 17906.74244245797, -181996.21820404747, -181967.6526746336, 0.05, 0.02, 0.974, 192.0, 0.0, 0.0, 0.0, 0.0, 0.0, 0.0, 0.0, 0.0, 0.0, 1.708991129281818E9, 0.0, 2024-02-26 18:45:29.281
124.0, 187500.0, 187500.0, 187500.0, -182241.3274337444, 187500.0, 17172.085305700937, -181867.5168594738, -181838.19137074845, 0.05, 0.02, 0.974, 192.0, 0.0, 0.0, 0.0, 0.0, 0.0, 0.0, 0.0, 0.0, 0.0, 1.708991129285823E9, 0.0, 2024-02-26 18:45:29.285
125.0, 187500.0, 187500.0, 187500.0, -182250.6257594378, 187500.0, 17341.802101350084, -181884.45948177093, -181854.68695815647, 0.05, 0.02, 0.974, 192.0, 0.0, 0.0, 0.0, 0.0, 0.0, 0.0, 0.0, 0.0, 0.0, 1.70899112928985E9, 0.0, 2024-02-26 18:45:29.289
126.0, 187500.0, 187500.0, 187500.0, -182379.66238017828, 187500.0, 18266.13614155485, -182023.88966368313, -181993.91597436857, 0.05, 0.02, 0.974, 192.0, 0.0, 0.0, 0.0, 0.0, 0.0, 0.0, 0.0, 0.0, 0.0, 1.708991129294823E9, 0.0, 2024-02-26 18:45:29.294
127.0, 187500.0, 187500.0, 187500.0, -182335.58474011242, 187500.0, 18059.18133964316, -181987.61278243217, -181957.3485204397, 0.054, 0.016, 0.974, 192.0, 1.0, 176.0, 0.0, 128.0, 30.0, 112.0, 0.0, 0.0, 0.0, 1.708991129297859E9, 0.0, 2024-02-26 18:45:29.297
128.0, 187500.0, 187500.0, 187500.0, -182178.11670042475, 187500.0, 17184.1552477068, -181843.8240103512, -181821.62872810708, 0.054, 0.016, 0.974, 192.0, 0.0, 0.0, 0.0, 0.0, 0.0, 0.0, 0.0, 0.0, 0.0, 1.708991129300867E9, 0.0, 2024-02-26 18:45:29.300
129.0, 187500.0, 187500.0, 187500.0, -182160.65998800518, 187500.0, 17183.954082006705, -181834.50333291333, -181814.83379779267, 0.054, 0.016, 0.974, 192.0, 0.0, 0.0, 0.0, 0.0, 0.0, 0.0, 0.0, 0.0, 0.0, 1.708991129305863E9, 0.0, 2024-02-26 18:45:29.305
130.0, 187500.0, 187500.0, 187500.0, -182281.24764934156, 187500.0, 18030.19112708463, -181962.93645655352, -181941.2329126874, 0.054, 0.016, 0.974, 192.0, 0.0, 0.0, 0.0, 0.0, 0.0, 0.0, 0.0, 0.0, 0.0, 1.708991129309886E9, 0.0, 2024-02-26 18:45:29.309
131.0, 187500.0, 187500.0, 187500.0, -182286.1650331217, 187500.0, 18137.34539000337, -181985.01998007536, -181960.0083780299, 0.054, 0.016, 0.974, 192.0, 0.0, 0.0, 0.0, 0.0, 0.0, 0.0, 0.0, 0.0, 0.0, 1.708991129313881E9, 0.0, 2024-02-26 18:45:29.313
132.0, 187500.0, 187500.0, 187500.0, -182094.230603484, 187500.0, 17205.009425283602, -181882.1349003476, -181845.50039118534, 0.054, 0.016, 0.974, 192.0, 0.0, 0.0, 0.0, 0.0, 0.0, 0.0, 0.0, 0.0, 0.0, 1.708991129317867E9, 0.0, 2024-02-26 18:45:29.317
133.0, 187500.0, 187500.0, 187500.0, -182028.38236431868, 187500.0, 17095.19530477468, -181825.8755595536, -181807.27890816677, 0.054, 0.016, 0.974, 192.0, 0.0, 0.0, 0.0, 0.0, 0.0, 0.0, 0.0, 0.0, 0.0, 1.708991129322875E9, 0.0, 2024-02-26 18:45:29.322
134.0, 187500.0, 187500.0, 187500.0, -182099.975001809, 187500.0, 17867.962165828012, -181894.89774643158, -181876.85988865615, 0.054, 0.016, 0.974, 192.0, 0.0, 0.0, 0.0, 0.0, 0.0, 0.0, 0.0, 0.0, 0.0, 1.708991129325875E9, 0.0, 2024-02-26 18:45:29.325
135.0, 187500.0, 187500.0, 187500.0, -182135.80484817087, 187500.0, 18333.549002832056, -181950.17361046956, -181929.25237765937, 0.054, 0.016, 0.974, 192.0, 0.0, 0.0, 0.0, 0.0, 0.0, 0.0, 0.0, 0.0, 0.0, 1.708991129328864E9, 0.0, 2024-02-26 18:45:29.328
136.0, 187500.0, 187500.0, 187500.0, -181957.706148351, 187500.0, 17447.347038668042, -181898.07169414422, -181848.51787668682, 0.054, 0.016, 0.974, 192.0, 0.0, 0.0, 0.0, 0.0, 0.0, 0.0, 0.0, 0.0, 0.0, 1.70899112933388E9, 0.0, 2024-02-26 18:45:29.333
137.0, 187500.0, 187500.0, 187500.0, -181859.09025181417, 187500.0, 17193.610035611397, -181837.83374283716, -181811.03400123527, 0.054, 0.016, 0.982, 192.0, 1.0, 176.0, 0.0, 128.0, 30.0, 176.0, 0.0, 0.0, 0.0, 1.708991129337888E9, 0.0, 2024-02-26 18:45:29.337
138.0, 187500.0, 187500.0, 187500.0, -181920.73636302192, 187500.0, 17832.266429932886, -181878.91624914602, -181859.71610065893, 0.054, 0.016, 0.982, 192.0, 0.0, 0.0, 0.0, 0.0, 0.0, 0.0, 0.0, 0.0, 0.0, 1.708991129341922E9, 0.0, 2024-02-26 18:45:29.341
139.0, 187500.0, 187500.0, 187500.0, -181997.87223313717, 187500.0, 18529.10441507154, -181966.28921822182, -181945.16681971157, 0.054, 0.016, 0.982, 192.0, 0.0, 0.0, 0.0, 0.0, 0.0, 0.0, 0.0, 0.0, 0.0, 1.708991129345927E9, 0.0, 2024-02-26 18:45:29.345
140.0, 187500.0, 187500.0, 187500.0, -181787.65407653502, 187500.0, 17725.22392573642, -181880.3691125356, -181840.78417310526, 0.054, 0.016, 0.982, 192.0, 0.0, 0.0, 0.0, 0.0, 0.0, 0.0, 0.0, 0.0, 0.0, 1.708991129349916E9, 0.0, 2024-02-26 18:45:29.349
141.0, 187500.0, 187500.0, 187500.0, -181580.45340543432, 187500.0, 17302.954769486758, -181839.84539983814, -181805.93780349946, 0.054, 0.016, 0.982, 192.0, 0.0, 0.0, 0.0, 0.0, 0.0, 0.0, 0.0, 0.0, 0.0, 1.708991129352919E9, 0.0, 2024-02-26 18:45:29.352
142.0, 187500.0, 187500.0, 187500.0, -181898.60813601114, 187500.0, 17791.407441068583, -181851.49065869936, -181828.96010028842, 0.054, 0.016, 0.982, 192.0, 0.0, 0.0, 0.0, 0.0, 0.0, 0.0, 0.0, 0.0, 0.0, 1.708991129356908E9, 0.0, 2024-02-26 18:45:29.356
143.0, 187500.0, 187500.0, 187500.0, -182422.68948825475, 187500.0, 18652.195471786916, -181971.206602002, -181947.80432555728, 0.054, 0.016, 0.982, 192.0, 0.0, 0.0, 0.0, 0.0, 0.0, 0.0, 0.0, 0.0, 0.0, 1.70899112936192E9, 0.0, 2024-02-26 18:45:29.361
144.0, 187500.0, 187500.0, 187500.0, -182370.9004963518, 187500.0, 18001.156211037185, -181890.3826940516, -181859.31376925873, 0.054, 0.016, 0.982, 192.0, 0.0, 0.0, 0.0, 0.0, 0.0, 0.0, 0.0, 0.0, 0.0, 1.708991129365926E9, 0.0, 2024-02-26 18:45:29.365
145.0, 187500.0, 187500.0, 187500.0, -182243.85318086782, 187500.0, 17409.63964577194, -181818.0077455053, -181793.24201264884, 0.054, 0.016, 0.982, 192.0, 0.0, 0.0, 0.0, 0.0, 0.0, 0.0, 0.0, 0.0, 0.0, 1.708991129370292E9, 0.0, 2024-02-26 18:45:29.370
146.0, 187500.0, 187500.0, 187500.0, -182266.98723637906, 187500.0, 17706.426108649506, -181829.00480377732, -181812.2186436914, 0.054, 0.016, 0.982, 192.0, 0.0, 0.0, 0.0, 0.0, 0.0, 0.0, 0.0, 0.0, 0.0, 1.708991129373924E9, 0.0, 2024-02-26 18:45:29.373
147.0, 187500.0, 187500.0, 187500.0, -182395.3533047859, 187500.0, 18637.46567219087, -181966.1104042662, -181948.92191278006, 0.054, 0.016, 0.98, 192.0, 1.0, 176.0, 0.0, 128.0, 30.0, 160.0, 0.0, 0.0, 0.0, 1.70899112937792E9, 0.0, 2024-02-26 18:45:29.377
148.0, 187500.0, 187500.0, 187500.0, -182316.7869230255, 187500.0, 18239.47051041967, -181904.79956922526, -181884.41477828202, 0.054, 0.016, 0.98, 192.0, 0.0, 0.0, 0.0, 0.0, 0.0, 0.0, 0.0, 0.0, 0.0, 1.708991129381917E9, 0.0, 2024-02-26 18:45:29.381
149.0, 187500.0, 187500.0, 187500.0, -182172.9981509445, 187500.0, 17469.31880346761, -181815.79492280423, -181790.82802424766, 0.054, 0.016, 0.98, 192.0, 0.0, 0.0, 0.0, 0.0, 0.0, 0.0, 0.0, 0.0, 0.0, 1.70899112938492E9, 0.0, 2024-02-26 18:45:29.384
150.0, 187500.0, 187500.0, 187500.0, -182174.18279340063, 187500.0, 17597.036671285234, -181816.64428909353, -181799.4557976074, 0.054, 0.016, 0.98, 192.0, 0.0, 0.0, 0.0, 0.0, 0.0, 0.0, 0.0, 0.0, 0.0, 1.708991129389965E9, 0.0, 2024-02-26 18:45:29.389
151.0, 187500.0, 187500.0, 187500.0, -182301.65479202924, 187500.0, 18501.5670659026, -181949.92774128052, -181932.96276723896, 0.054, 0.016, 0.98, 192.0, 0.0, 0.0, 0.0, 0.0, 0.0, 0.0, 0.0, 0.0, 0.0, 1.708991129393949E9, 0.0, 2024-02-26 18:45:29.393
152.0, 187500.0, 187500.0, 187500.0, -182290.1659953792, 187500.0, 18397.854971629975, -181946.4855726344, -181928.91710149255, 0.054, 0.016, 0.98, 192.0, 0.0, 0.0, 0.0, 0.0, 0.0, 0.0, 0.0, 0.0, 0.0, 1.708991129397951E9, 0.0, 2024-02-26 18:45:29.397
153.0, 187500.0, 187500.0, 187500.0, -182135.60368247077, 187500.0, 17488.720117654815, -181834.10100151313, -181812.19629194692, 0.054, 0.016, 0.98, 192.0, 0.0, 0.0, 0.0, 0.0, 0.0, 0.0, 0.0, 0.0, 0.0, 1.708991129401954E9, 0.0, 2024-02-26 18:45:29.401
154.0, 187500.0, 187500.0, 187500.0, -182102.65721114364, 187500.0, 17440.842681031547, -181820.68995483994, -181803.43440812046, 0.054, 0.016, 0.98, 192.0, 0.0, 0.0, 0.0, 0.0, 0.0, 0.0, 0.0, 0.0, 0.0, 1.70899112940496E9, 0.0, 2024-02-26 18:45:29.404
155.0, 187500.0, 187500.0, 187500.0, -182242.33326224485, 187500.0, 18286.923263898287, -181961.9529797975, -181945.25622668938, 0.054, 0.016, 0.98, 192.0, 0.0, 0.0, 0.0, 0.0, 0.0, 0.0, 0.0, 0.0, 0.0, 1.708991129408945E9, 0.0, 2024-02-26 18:45:29.408
156.0, 187500.0, 187500.0, 187500.0, -182287.59554476687, 187500.0, 18503.42226069239, -182015.8653874237, -181998.38632325965, 0.054, 0.016, 0.98, 192.0, 0.0, 0.0, 0.0, 0.0, 0.0, 0.0, 0.0, 0.0, 0.0, 1.708991129412968E9, 0.0, 2024-02-26 18:45:29.412
157.0, 187500.0, 187500.0, 187500.0, -182136.56480748235, 187500.0, 17585.994909524314, -181869.34970251916, -181850.75305113234, 0.056, 0.014, 0.978, 192.0, 1.0, 192.0, 0.0, 112.0, 30.0, 144.0, 0.0, 0.0, 0.0, 1.708991129417952E9, 0.0, 2024-02-26 18:45:29.417
158.0, 187500.0, 187500.0, 187500.0, -182096.80105409637, 187500.0, 17447.414093901407, -181835.1291817581, -181816.15255071552, 0.056, 0.014, 0.978, 192.0, 0.0, 0.0, 0.0, 0.0, 0.0, 0.0, 0.0, 0.0, 0.0, 1.708991129421965E9, 0.0, 2024-02-26 18:45:29.421
159.0, 187500.0, 187500.0, 187500.0, -182213.8571398088, 187500.0, 18180.707774246668, -181961.28242746383, -181942.439906888, 0.056, 0.014, 0.978, 192.0, 0.0, 0.0, 0.0, 0.0, 0.0, 0.0, 0.0, 0.0, 0.0, 1.708991129425967E9, 0.0, 2024-02-26 18:45:29.425
160.0, 187500.0, 187500.0, 187500.0, -182290.85889945732, 187500.0, 18682.347975057124, -182047.6719197836, -182028.2259021075, 0.056, 0.014, 0.978, 192.0, 0.0, 0.0, 0.0, 0.0, 0.0, 0.0, 0.0, 0.0, 0.0, 1.708991129429991E9, 0.0, 2024-02-26 18:45:29.429
161.0, 187500.0, 187500.0, 187500.0, -182137.97296738304, 187500.0, 17802.985644696433, -181899.70337148945, -181877.91042064555, 0.056, 0.014, 0.978, 192.0, 0.0, 0.0, 0.0, 0.0, 0.0, 0.0, 0.0, 0.0, 0.0, 1.708991129432994E9, 0.0, 2024-02-26 18:45:29.432
162.0, 187500.0, 187500.0, 187500.0, -182071.02949273938, 187500.0, 17496.096193325066, -181839.80069634924, -181815.99608850433, 0.056, 0.014, 0.978, 192.0, 0.0, 0.0, 0.0, 0.0, 0.0, 0.0, 0.0, 0.0, 0.0, 1.708991129436998E9, 0.0, 2024-02-26 18:45:29.436
163.0, 187500.0, 187500.0, 187500.0, -182139.5375894949, 187500.0, 18092.91012202622, -181917.67417403153, -181893.06490338623, 0.056, 0.014, 0.978, 192.0, 0.0, 0.0, 0.0, 0.0, 0.0, 0.0, 0.0, 0.0, 0.0, 1.708991129441014E9, 0.0, 2024-02-26 18:45:29.441
164.0, 187500.0, 187500.0, 187500.0, -182239.40518372122, 187500.0, 18858.032686475835, -182027.84592245173, -182002.94607912854, 0.056, 0.014, 0.978, 192.0, 0.0, 0.0, 0.0, 0.0, 0.0, 0.0, 0.0, 0.0, 0.0, 1.708991129445993E9, 0.0, 2024-02-26 18:45:29.445
165.0, 187500.0, 187500.0, 187500.0, -182116.0906095613, 187500.0, 18076.973328229586, -181909.38167683862, -181883.56541199272, 0.056, 0.014, 0.978, 192.0, 0.0, 0.0, 0.0, 0.0, 0.0, 0.0, 0.0, 0.0, 0.0, 1.708991129449992E9, 0.0, 2024-02-26 18:45:29.449
166.0, 187500.0, 187500.0, 187500.0, -182038.75357374593, 187500.0, 17560.42451386744, -181838.01255679282, -181811.63749833556, 0.056, 0.014, 0.978, 192.0, 0.0, 0.0, 0.0, 0.0, 0.0, 0.0, 0.0, 0.0, 0.0, 1.708991129453992E9, 0.0, 2024-02-26 18:45:29.453
167.0, 187500.0, 187500.0, 187500.0, -182113.5872141823, 187500.0, 17937.341980617282, -181921.60808105566, -181895.16596736503, 0.054, 0.018000000000000002, 0.976, 192.0, 1.0, 176.0, 0.0, 144.0, 30.0, 128.0, 0.0, 0.0, 0.0, 1.70899112945801E9, 0.0, 2024-02-26 18:45:29.458
168.0, 187500.0, 187500.0, 187500.0, -182256.34780601834, 187500.0, 18788.00467109736, -182075.29867593036, -182048.0742511838, 0.054, 0.018000000000000002, 0.976, 192.0, 0.0, 0.0, 0.0, 0.0, 0.0, 0.0, 0.0, 0.0, 0.0, 1.70899112946099E9, 0.0, 2024-02-26 18:45:29.460
169.0, 187500.0, 187500.0, 187500.0, -182158.8494967043, 187500.0, 18184.6416812708, -181982.69539865202, -181954.2416279604, 0.054, 0.018000000000000002, 0.976, 192.0, 0.0, 0.0, 0.0, 0.0, 0.0, 0.0, 0.0, 0.0, 0.0, 1.708991129464996E9, 0.0, 2024-02-26 18:45:29.464
170.0, 187500.0, 187500.0, 187500.0, -182041.9275214586, 187500.0, 17524.259391338754, -181869.79673740827, -181839.9795103049, 0.054, 0.018000000000000002, 0.976, 192.0, 0.0, 0.0, 0.0, 0.0, 0.0, 0.0, 0.0, 0.0, 0.0, 1.708991129469088E9, 0.0, 2024-02-26 18:45:29.469
171.0, 187500.0, 187500.0, 187500.0, -182067.54262060436, 187500.0, 17785.931263677034, -181903.1455401356, -181872.00956010935, 0.054, 0.018000000000000002, 0.976, 192.0, 0.0, 0.0, 0.0, 0.0, 0.0, 0.0, 0.0, 0.0, 0.0, 1.7089911294731E9, 0.0, 2024-02-26 18:45:29.473
172.0, 187500.0, 187500.0, 187500.0, -182205.4081804047, 187500.0, 18741.870670541604, -182051.76228901892, -182019.955756659, 0.054, 0.018000000000000002, 0.976, 192.0, 0.0, 0.0, 0.0, 0.0, 0.0, 0.0, 0.0, 0.0, 0.0, 1.7089911294781E9, 0.0, 2024-02-26 18:45:29.478
173.0, 187500.0, 187500.0, 187500.0, -182140.8339906733, 187500.0, 18435.852937203996, -181994.45241623552, -181961.01420653038, 0.054, 0.018000000000000002, 0.976, 192.0, 0.0, 0.0, 0.0, 0.0, 0.0, 0.0, 0.0, 0.0, 0.0, 1.708991129482109E9, 0.0, 2024-02-26 18:45:29.482
174.0, 187500.0, 187500.0, 187500.0, -181999.54861397133, 187500.0, 17629.06672108969, -181857.19035353546, -181822.29928044073, 0.054, 0.018000000000000002, 0.976, 192.0, 0.0, 0.0, 0.0, 0.0, 0.0, 0.0, 0.0, 0.0, 0.0, 1.708991129485109E9, 0.0, 2024-02-26 18:45:29.485
175.0, 187500.0, 187500.0, 187500.0, -182014.59133798975, 187500.0, 17712.88576279709, -181880.1679468355, -181844.20399000694, 0.054, 0.018000000000000002, 0.976, 192.0, 0.0, 0.0, 0.0, 0.0, 0.0, 0.0, 0.0, 0.0, 0.0, 1.708991129489089E9, 0.0, 2024-02-26 18:45:29.489
176.0, 187500.0, 187500.0, 187500.0, -182143.62795873024, 187500.0, 18593.186866424905, -182020.00046014792, -181983.67887540805, 0.054, 0.018000000000000002, 0.976, 192.0, 0.0, 0.0, 0.0, 0.0, 0.0, 0.0, 0.0, 0.0, 0.0, 1.708991129493093E9, 0.0, 2024-02-26 18:45:29.493
177.0, 187500.0, 187500.0, 187500.0, -182146.2878163204, 187500.0, 18574.54551154918, -182030.50578004192, -181993.33482901275, 0.054, 0.02, 0.976, 192.0, 1.0, 176.0, 0.0, 160.0, 30.0, 128.0, 0.0, 0.0, 0.0, 1.708991129497094E9, 0.0, 2024-02-26 18:45:29.497
178.0, 187500.0, 187500.0, 187500.0, -182001.44851225003, 187500.0, 17649.742084710848, -181890.80737719624, -181851.91534184403, 0.054, 0.02, 0.976, 192.0, 0.0, 0.0, 0.0, 0.0, 0.0, 0.0, 0.0, 0.0, 0.0, 1.708991129501096E9, 0.0, 2024-02-26 18:45:29.501
179.0, 187500.0, 187500.0, 187500.0, -181987.27750626535, 187500.0, 17561.18447317892, -181883.45365327047, -181844.62867315157, 0.054, 0.02, 0.976, 192.0, 0.0, 0.0, 0.0, 0.0, 0.0, 0.0, 0.0, 0.0, 0.0, 1.708991129506114E9, 0.0, 2024-02-26 18:45:29.506
180.0, 187500.0, 187500.0, 187500.0, -182105.11590303373, 187500.0, 18349.01640999513, -182010.9480036435, -181971.8548025912, 0.054, 0.02, 0.976, 192.0, 0.0, 0.0, 0.0, 0.0, 0.0, 0.0, 0.0, 0.0, 0.0, 1.70899112951009E9, 0.0, 2024-02-26 18:45:29.510
181.0, 187500.0, 187500.0, 187500.0, -182161.5540577834, 187500.0, 18649.334448496636, -182077.0644637423, -182037.63598652315, 0.054, 0.02, 0.976, 192.0, 0.0, 0.0, 0.0, 0.0, 0.0, 0.0, 0.0, 0.0, 0.0, 1.708991129513086E9, 0.0, 2024-02-26 18:45:29.513
182.0, 187500.0, 187500.0, 187500.0, -182018.68170722507, 187500.0, 17714.182163975496, -181938.75186905288, -181896.97645866591, 0.054, 0.02, 0.976, 192.0, 0.0, 0.0, 0.0, 0.0, 0.0, 0.0, 0.0, 0.0, 0.0, 1.708991129517093E9, 0.0, 2024-02-26 18:45:29.517
183.0, 187500.0, 187500.0, 187500.0, -181949.6371686026, 187500.0, 17468.357678456032, -181875.65289445556, -181833.2739869683, 0.054, 0.02, 0.976, 192.0, 0.0, 0.0, 0.0, 0.0, 0.0, 0.0, 0.0, 0.0, 0.0, 1.708991129521086E9, 0.0, 2024-02-26 18:45:29.521
184.0, 187500.0, 187500.0, 187500.0, -182023.08500088277, 187500.0, 18135.154919046752, -181957.66144486208, -181915.39429609707, 0.054, 0.02, 0.976, 192.0, 0.0, 0.0, 0.0, 0.0, 0.0, 0.0, 0.0, 0.0, 0.0, 1.708991129525088E9, 0.0, 2024-02-26 18:45:29.525
185.0, 187500.0, 187500.0, 187500.0, -182097.7398273635, 187500.0, 18713.439251594456, -182041.14521040264, -181998.16280581508, 0.054, 0.02, 0.976, 192.0, 0.0, 0.0, 0.0, 0.0, 0.0, 0.0, 0.0, 0.0, 0.0, 1.708991129529088E9, 0.0, 2024-02-26 18:45:29.529
186.0, 187500.0, 187500.0, 187500.0, -181936.91902600756, 187500.0, 17830.09831072072, -181886.06880737172, -181857.07859481318, 0.056, 0.016, 0.972, 192.0, 1.0, 192.0, 0.0, 128.0, 30.0, 96.0, 0.0, 0.0, 0.0, 1.708991129534092E9, 0.0, 2024-02-26 18:45:29.534
187.0, 187500.0, 187500.0, 187500.0, -181847.69086214196, 187500.0, 17446.87765203448, -181812.79978904722, -181799.07581795167, 0.056, 0.016, 0.972, 192.0, 0.0, 0.0, 0.0, 0.0, 0.0, 0.0, 0.0, 0.0, 0.0, 1.708991129538125E9, 0.0, 2024-02-26 18:45:29.538
188.0, 187500.0, 187500.0, 187500.0, -181901.06682790123, 187500.0, 17973.8423793128, -181873.95416187696, -181854.46344071193, 0.056, 0.016, 0.972, 192.0, 0.0, 0.0, 0.0, 0.0, 0.0, 0.0, 0.0, 0.0, 0.0, 1.708991129541116E9, 0.0, 2024-02-26 18:45:29.541
189.0, 187500.0, 187500.0, 187500.0, -181994.0053813464, 187500.0, 18762.05429578475, -181977.97918057194, -181957.92966579553, 0.056, 0.016, 0.972, 192.0, 0.0, 0.0, 0.0, 0.0, 0.0, 0.0, 0.0, 0.0, 0.0, 1.708991129545123E9, 0.0, 2024-02-26 18:45:29.545
190.0, 187500.0, 187500.0, 187500.0, -181766.37521581355, 187500.0, 18048.117226137787, -181901.9832494239, -181866.9804176069, 0.056, 0.016, 0.972, 192.0, 0.0, 0.0, 0.0, 0.0, 0.0, 0.0, 0.0, 0.0, 0.0, 1.708991129549106E9, 0.0, 2024-02-26 18:45:29.549
191.0, 187500.0, 187500.0, 187500.0, -181584.54377466964, 187500.0, 17543.727760759328, -181842.99699580634, -181811.92807101348, 0.056, 0.016, 0.972, 192.0, 0.0, 0.0, 0.0, 0.0, 0.0, 0.0, 0.0, 0.0, 0.0, 1.708991129553094E9, 0.0, 2024-02-26 18:45:29.553
192.0, 187500.0, 187500.0, 187500.0, -181887.85694692814, 187500.0, 17924.60148627776, -181830.3235567002, -181813.29152742526, 0.056, 0.016, 0.972, 192.0, 0.0, 0.0, 0.0, 0.0, 0.0, 0.0, 0.0, 0.0, 0.0, 1.708991129557111E9, 0.0, 2024-02-26 18:45:29.557
193.0, 187500.0, 187500.0, 187500.0, -182417.52623528556, 187500.0, 18852.355343384188, -181944.56332261127, -181928.26890090335, 0.056, 0.016, 0.972, 192.0, 0.0, 0.0, 0.0, 0.0, 0.0, 0.0, 0.0, 0.0, 0.0, 1.708991129562098E9, 0.0, 2024-02-26 18:45:29.562
194.0, 187500.0, 187500.0, 187500.0, -182433.68654652676, 187500.0, 18354.984325764697, -181890.20388009597, -181867.15923156255, 0.056, 0.016, 0.972, 192.0, 0.0, 0.0, 0.0, 0.0, 0.0, 0.0, 0.0, 0.0, 0.0, 1.708991129566098E9, 0.0, 2024-02-26 18:45:29.566
195.0, 187500.0, 187500.0, 187500.0, -182297.1844431382, 187500.0, 17653.363067312606, -181838.30312947073, -181804.52964359877, 0.056, 0.016, 0.972, 192.0, 0.0, 0.0, 0.0, 0.0, 0.0, 0.0, 0.0, 0.0, 0.0, 1.708991129569125E9, 0.0, 2024-02-26 18:45:29.569
196.0, 187500.0, 187500.0, 187500.0, -182304.31464961942, 187500.0, 17845.87864230617, -181833.8774840686, -181809.6705448235, 0.054, 0.016, 0.972, 192.0, 1.0, 176.0, 0.0, 128.0, 30.0, 96.0, 0.0, 0.0, 0.0, 1.708991129573112E9, 0.0, 2024-02-26 18:45:29.573
197.0, 187500.0, 187500.0, 187500.0, -182437.4639913397, 187500.0, 18782.684955916997, -181972.4582996915, -181949.36894766917, 0.054, 0.016, 0.972, 192.0, 0.0, 0.0, 0.0, 0.0, 0.0, 0.0, 0.0, 0.0, 0.0, 1.70899112957711E9, 0.0, 2024-02-26 18:45:29.577
198.0, 187500.0, 187500.0, 187500.0, -182400.38244728834, 187500.0, 18582.659194786454, -181950.50888663638, -181926.36900262465, 0.054, 0.016, 0.972, 192.0, 0.0, 0.0, 0.0, 0.0, 0.0, 0.0, 0.0, 0.0, 0.0, 1.708991129581108E9, 0.0, 2024-02-26 18:45:29.581
199.0, 187500.0, 187500.0, 187500.0, -182235.8065528639, 187500.0, 17759.71266743096, -181832.69284161244, -181811.48103612437, 0.054, 0.016, 0.972, 192.0, 0.0, 0.0, 0.0, 0.0, 0.0, 0.0, 0.0, 0.0, 0.0, 1.70899112958513E9, 0.0, 2024-02-26 18:45:29.585
200.0, 187500.0, 187500.0, 187500.0, -182206.07873273836, 187500.0, 17819.883563504645, -181806.78716978876, -181788.52579456876, 0.054, 0.016, 0.972, 192.0, 0.0, 0.0, 0.0, 0.0, 0.0, 0.0, 0.0, 0.0, 0.0, 1.708991129590133E9, 0.0, 2024-02-26 18:45:29.590
201.0, 187500.0, 187500.0, 187500.0, -182319.22326317112, 187500.0, 18719.787147019764, -181925.29611889078, -181907.0347436708, 0.054, 0.016, 0.972, 192.0, 0.0, 0.0, 0.0, 0.0, 0.0, 0.0, 0.0, 0.0, 0.0, 1.708991129594162E9, 0.0, 2024-02-26 18:45:29.594
202.0, 187500.0, 187500.0, 187500.0, -182340.32330993694, 187500.0, 18822.046377902792, -181956.0968227502, -181937.3437091522, 0.054, 0.016, 0.972, 192.0, 0.0, 0.0, 0.0, 0.0, 0.0, 0.0, 0.0, 0.0, 0.0, 1.708991129598162E9, 0.0, 2024-02-26 18:45:29.598
203.0, 187500.0, 187500.0, 187500.0, -182180.0613021924, 187500.0, 17889.68806143857, -181833.94453930194, -181811.03400123527, 0.054, 0.016, 0.972, 192.0, 0.0, 0.0, 0.0, 0.0, 0.0, 0.0, 0.0, 0.0, 0.0, 1.708991129601157E9, 0.0, 2024-02-26 18:45:29.601
204.0, 187500.0, 187500.0, 187500.0, -182143.35973779677, 187500.0, 17762.70780118797, -181818.7230013279, -181798.06998945118, 0.054, 0.016, 0.972, 192.0, 0.0, 0.0, 0.0, 0.0, 0.0, 0.0, 0.0, 0.0, 0.0, 1.708991129605151E9, 0.0, 2024-02-26 18:45:29.605
205.0, 187500.0, 187500.0, 187500.0, -182262.69570144365, 187500.0, 18533.99944710725, -181938.75186905288, -181920.26697638835, 0.054, 0.016, 0.972, 192.0, 0.0, 0.0, 0.0, 0.0, 0.0, 0.0, 0.0, 0.0, 0.0, 1.708991129609191E9, 0.0, 2024-02-26 18:45:29.609
206.0, 187500.0, 187500.0, 187500.0, -182328.07455397543, 187500.0, 18920.93049537307, -182012.53497749986, -181993.82656739076, 0.054, 0.016, 0.972, 192.0, 1.0, 176.0, 0.0, 128.0, 30.0, 96.0, 0.0, 0.0, 0.0, 1.708991129613162E9, 0.0, 2024-02-26 18:45:29.613
207.0, 187500.0, 187500.0, 187500.0, -182137.92826389414, 187500.0, 17974.781152579922, -181855.04458606776, -181831.6646613675, 0.054, 0.016, 0.972, 192.0, 0.0, 0.0, 0.0, 0.0, 0.0, 0.0, 0.0, 0.0, 0.0, 1.708991129618159E9, 0.0, 2024-02-26 18:45:29.618
208.0, 187500.0, 187500.0, 187500.0, -182069.06253922734, 187500.0, 17722.765233846338, -181815.48199838187, -181785.24008813384, 0.054, 0.016, 0.972, 192.0, 0.0, 0.0, 0.0, 0.0, 0.0, 0.0, 0.0, 0.0, 0.0, 1.708991129622172E9, 0.0, 2024-02-26 18:45:29.622
209.0, 187500.0, 187500.0, 187500.0, -182156.12258388076, 187500.0, 18370.07175327203, -181900.4856825454, -181874.28943804378, 0.054, 0.016, 0.972, 192.0, 0.0, 0.0, 0.0, 0.0, 0.0, 0.0, 0.0, 0.0, 0.0, 1.70899112962516E9, 0.0, 2024-02-26 18:45:29.625
210.0, 187500.0, 187500.0, 187500.0, -182245.55191344643, 187500.0, 19026.453080946576, -181999.4592069935, -181972.68181713604, 0.054, 0.016, 0.972, 192.0, 0.0, 0.0, 0.0, 0.0, 0.0, 0.0, 0.0, 0.0, 0.0, 1.708991129629173E9, 0.0, 2024-02-26 18:45:29.629
211.0, 187500.0, 187500.0, 187500.0, -182093.89532731718, 187500.0, 18188.59794003939, -181862.93475186048, -181842.01351905032, 0.054, 0.016, 0.972, 192.0, 0.0, 0.0, 0.0, 0.0, 0.0, 0.0, 0.0, 0.0, 0.0, 1.708991129633165E9, 0.0, 2024-02-26 18:45:29.633
