%OpenBCI Raw EXG Data
%Number of channels = 8
%Sample Rate = 250 Hz
%Board = OpenBCI_GUI$BoardCytonSerial
Sample Index, EXG Channel 0, EXG Channel 1, EXG Channel 2, EXG Channel 3, EXG Channel 4, EXG Channel 5, EXG Channel 6, EXG Channel 7, Accel Channel 0, Accel Channel 1, Accel Channel 2, Other, Other, Other, Other, Other, Other, Other, Analog Channel 0, Analog Channel 1, Analog Channel 2, Timestamp, Other, Timestamp (Formatted)
0.0, 0.0, 0.0, 0.0, 0.0, 0.0, 0.0, 0.0, 0.0, 0.056, 0.014, 0.98, 192.0, 1.0, 192.0, 0.0, 112.0, 30.0, 160.0, 0.0, 0.0, 0.0, 1.708990782686218E9, 0.0, 2024-02-26 18:39:42.686
1.0, -187500.02235174447, -187500.02235174447, 178582.659790833, -187500.02235174447, -187500.02235174447, -187500.02235174447, -187500.02235174447, -187500.02235174447, 0.056, 0.014, 0.98, 192.0, 0.0, 0.0, 0.0, 0.0, 0.0, 0.0, 0.0, 0.0, 0.0, 1.708990782702237E9, 0.0, 2024-02-26 18:39:42.702
2.0, -187500.02235174447, -187500.02235174447, 178542.896037447, -187500.02235174447, -187500.02235174447, -187500.02235174447, -187500.02235174447, -187500.02235174447, 0.056, 0.014, 0.98, 192.0, 0.0, 0.0, 0.0, 0.0, 0.0, 0.0, 0.0, 0.0, 0.0, 1.708990782706217E9, 0.0, 2024-02-26 18:39:42.706
3.0, -187500.02235174447, -187500.02235174447, 178491.01763856623, -187500.02235174447, -187500.02235174447, -187500.02235174447, -187500.02235174447, -187500.02235174447, 0.056, 0.014, 0.98, 192.0, 0.0, 0.0, 0.0, 0.0, 0.0, 0.0, 0.0, 0.0, 0.0, 1.708990782709259E9, 0.0, 2024-02-26 18:39:42.709
4.0, -187500.02235174447, -187500.02235174447, 178449.15282120142, -187500.02235174447, -187500.02235174447, -187500.02235174447, -187500.02235174447, -187500.02235174447, 0.056, 0.014, 0.98, 192.0, 0.0, 0.0, 0.0, 0.0, 0.0, 0.0, 0.0, 0.0, 0.0, 1.708990782712215E9, 0.0, 2024-02-26 18:39:42.712
5.0, -187500.02235174447, -187500.02235174447, 178419.62616677597, -187500.02235174447, -187500.02235174447, -187500.02235174447, -187500.02235174447, -187500.02235174447, 0.056, 0.014, 0.98, 192.0, 0.0, 0.0, 0.0, 0.0, 0.0, 0.0, 0.0, 0.0, 0.0, 1.708990782717197E9, 0.0, 2024-02-26 18:39:42.717
6.0, -187500.02235174447, -187500.02235174447, 178376.37554125497, -187500.02235174447, -187500.02235174447, -187500.02235174447, -187500.02235174447, -187500.02235174447, 0.056, 0.014, 0.98, 192.0, 0.0, 0.0, 0.0, 0.0, 0.0, 0.0, 0.0, 0.0, 0.0, 1.708990782720213E9, 0.0, 2024-02-26 18:39:42.720
7.0, -187500.02235174447, -187500.02235174447, 178310.6837643008, -187500.02235174447, -187500.02235174447, -187500.02235174447, -187500.02235174447, -187500.02235174447, 0.056, 0.014, 0.98, 192.0, 0.0, 0.0, 0.0, 0.0, 0.0, 0.0, 0.0, 0.0, 0.0, 1.708990782724208E9, 0.0, 2024-02-26 18:39:42.724
8.0, -187500.02235174447, -187500.02235174447, 178241.1698390448, -187500.02235174447, -187500.02235174447, -187500.02235174447, -187500.02235174447, -187500.02235174447, 0.056, 0.02, 0.98, 192.0, 1.0, 192.0, 0.0, 160.0, 30.0, 160.0, 0.0, 0.0, 0.0, 1.708990782728214E9, 0.0, 2024-02-26 18:39:42.728
9.0, -187500.02235174447, -187500.02235174447, 178157.06022465948, -187500.02235174447, -187500.02235174447, -187500.02235174447, -187500.02235174447, -187500.02235174447, 0.056, 0.02, 0.98, 192.0, 0.0, 0.0, 0.0, 0.0, 0.0, 0.0, 0.0, 0.0, 0.0, 1.708990782732211E9, 0.0, 2024-02-26 18:39:42.732
10.0, -187500.02235174447, -187500.02235174447, 178055.35978738783, -187500.02235174447, -187500.02235174447, -187500.02235174447, -187500.02235174447, -187500.02235174447, 0.056, 0.02, 0.98, 192.0, 0.0, 0.0, 0.0, 0.0, 0.0, 0.0, 0.0, 0.0, 0.0, 1.708990782737234E9, 0.0, 2024-02-26 18:39:42.737
11.0, -187500.02235174447, -187500.02235174447, 177939.01895749796, -187500.02235174447, -187500.02235174447, -187500.02235174447, -187500.02235174447, -187500.02235174447, 0.056, 0.02, 0.98, 192.0, 0.0, 0.0, 0.0, 0.0, 0.0, 0.0, 0.0, 0.0, 0.0, 1.708990782741234E9, 0.0, 2024-02-26 18:39:42.741
12.0, -187500.02235174447, -187500.02235174447, 177792.72679003797, -187500.02235174447, -187500.02235174447, -187500.02235174447, -187500.02235174447, -187500.02235174447, 0.056, 0.02, 0.98, 192.0, 0.0, 0.0, 0.0, 0.0, 0.0, 0.0, 0.0, 0.0, 0.0, 1.70899078274425E9, 0.0, 2024-02-26 18:39:42.744
13.0, -187500.02235174447, -187500.02235174447, 177662.48317509692, -187500.02235174447, -187500.02235174447, -187500.02235174447, -187500.02235174447, -187500.02235174447, 0.056, 0.02, 0.98, 192.0, 0.0, 0.0, 0.0, 0.0, 0.0, 0.0, 0.0, 0.0, 0.0, 1.708990782748261E9, 0.0, 2024-02-26 18:39:42.748
14.0, -187500.02235174447, -187500.02235174447, 177586.37548522657, -187500.02235174447, -187500.02235174447, -187500.02235174447, -187500.02235174447, -187500.02235174447, 0.056, 0.02, 0.98, 192.0, 0.0, 0.0, 0.0, 0.0, 0.0, 0.0, 0.0, 0.0, 0.0, 1.708990782752518E9, 0.0, 2024-02-26 18:39:42.752
15.0, -187500.02235174447, -187500.02235174447, 177474.8849838835, -187500.02235174447, -187500.02235174447, -187500.02235174447, -187500.02235174447, -187500.02235174447, 0.056, 0.02, 0.98, 192.0, 0.0, 0.0, 0.0, 0.0, 0.0, 0.0, 0.0, 0.0, 0.0, 1.708990782756252E9, 0.0, 2024-02-26 18:39:42.756
16.0, -187500.02235174447, -187500.02235174447, 177380.33710483756, -187500.02235174447, -187500.02235174447, -187500.02235174447, -187500.02235174447, -187500.02235174447, 0.056, 0.02, 0.98, 192.0, 0.0, 0.0, 0.0, 0.0, 0.0, 0.0, 0.0, 0.0, 0.0, 1.708990782760249E9, 0.0, 2024-02-26 18:39:42.760
17.0, -187500.02235174447, -187500.02235174447, 177319.38389770794, -187500.02235174447, -187500.02235174447, -187500.02235174447, -187500.02235174447, -187500.02235174447, 0.056, 0.022, 0.976, 192.0, 1.0, 192.0, 0.0, 176.0, 30.0, 128.0, 0.0, 0.0, 0.0, 1.708990782765277E9, 0.0, 2024-02-26 18:39:42.765
18.0, -187500.02235174447, -187500.02235174447, 177262.47635632474, -187500.02235174447, -187500.02235174447, -187500.02235174447, -187500.02235174447, -187500.02235174447, 0.056, 0.022, 0.976, 192.0, 0.0, 0.0, 0.0, 0.0, 0.0, 0.0, 0.0, 0.0, 0.0, 1.708990782769363E9, 0.0, 2024-02-26 18:39:42.769
19.0, -187500.02235174447, -187500.02235174447, 177185.98868679866, -187500.02235174447, -187500.02235174447, -187500.02235174447, -187500.02235174447, -187500.02235174447, 0.056, 0.022, 0.976, 192.0, 0.0, 0.0, 0.0, 0.0, 0.0, 0.0, 0.0, 0.0, 0.0, 1.708990782772321E9, 0.0, 2024-02-26 18:39:42.772
20.0, -187500.02235174447, -187500.02235174447, 177098.43690376723, -187500.02235174447, -187500.02235174447, -187500.02235174447, -187500.02235174447, -187500.02235174447, 0.056, 0.022, 0.976, 192.0, 0.0, 0.0, 0.0, 0.0, 0.0, 0.0, 0.0, 0.0, 0.0, 1.708990782776254E9, 0.0, 2024-02-26 18:39:42.776
21.0, -187500.02235174447, -187500.02235174447, 177014.3272893819, -187500.02235174447, -187500.02235174447, -187500.02235174447, -187500.02235174447, -187500.02235174447, 0.056, 0.022, 0.976, 192.0, 0.0, 0.0, 0.0, 0.0, 0.0, 0.0, 0.0, 0.0, 0.0, 1.708990782780301E9, 0.0, 2024-02-26 18:39:42.780
22.0, -187500.02235174447, -187500.02235174447, 176916.09137250084, -187500.02235174447, -187500.02235174447, -187500.02235174447, -187500.02235174447, -187500.02235174447, 0.056, 0.022, 0.976, 192.0, 0.0, 0.0, 0.0, 0.0, 0.0, 0.0, 0.0, 0.0, 0.0, 1.708990782784285E9, 0.0, 2024-02-26 18:39:42.784
23.0, -187500.02235174447, -187500.02235174447, 176827.77963015792, -187500.02235174447, -187500.02235174447, -187500.02235174447, -187500.02235174447, -187500.02235174447, 0.056, 0.022, 0.976, 192.0, 0.0, 0.0, 0.0, 0.0, 0.0, 0.0, 0.0, 0.0, 0.0, 1.708990782788294E9, 0.0, 2024-02-26 18:39:42.788
24.0, -187500.02235174447, -187500.02235174447, 176751.35901586522, -187500.02235174447, -187500.02235174447, -187500.02235174447, -187500.02235174447, -187500.02235174447, 0.056, 0.022, 0.976, 192.0, 0.0, 0.0, 0.0, 0.0, 0.0, 0.0, 0.0, 0.0, 0.0, 1.7089907827933E9, 0.0, 2024-02-26 18:39:42.793
25.0, -187500.02235174447, -187500.02235174447, 176691.94807910302, -187500.02235174447, -187500.02235174447, -187500.02235174447, -187500.02235174447, -187500.02235174447, 0.056, 0.022, 0.976, 192.0, 0.0, 0.0, 0.0, 0.0, 0.0, 0.0, 0.0, 0.0, 0.0, 1.708990782797289E9, 0.0, 2024-02-26 18:39:42.797
26.0, -187500.02235174447, -187500.02235174447, 176636.80632553177, -187500.02235174447, -187500.02235174447, -187500.02235174447, -187500.02235174447, -187500.02235174447, 0.056, 0.022, 0.976, 192.0, 0.0, 0.0, 0.0, 0.0, 0.0, 0.0, 0.0, 0.0, 0.0, 1.708990782800297E9, 0.0, 2024-02-26 18:39:42.800
27.0, -187500.02235174447, -187500.02235174447, 176577.21657481394, -187500.02235174447, -187500.02235174447, -187500.02235174447, -187500.02235174447, -187500.02235174447, 0.054, 0.018000000000000002, 0.98, 192.0, 1.0, 176.0, 0.0, 144.0, 30.0, 160.0, 0.0, 0.0, 0.0, 1.708990782804329E9, 0.0, 2024-02-26 18:39:42.804
28.0, -187500.02235174447, -187500.02235174447, 176519.39261190806, -187500.02235174447, -187500.02235174447, -187500.02235174447, -187500.02235174447, -187500.02235174447, 0.054, 0.018000000000000002, 0.98, 192.0, 0.0, 0.0, 0.0, 0.0, 0.0, 0.0, 0.0, 0.0, 0.0, 1.708990782808337E9, 0.0, 2024-02-26 18:39:42.808
29.0, -187500.02235174447, -187500.02235174447, 176468.11771012758, -187500.02235174447, -187500.02235174447, -187500.02235174447, -187500.02235174447, -187500.02235174447, 0.054, 0.018000000000000002, 0.98, 192.0, 0.0, 0.0, 0.0, 0.0, 0.0, 0.0, 0.0, 0.0, 0.0, 1.708990782812341E9, 0.0, 2024-02-26 18:39:42.812
30.0, -187500.02235174447, -187500.02235174447, 176419.07798279263, -187500.02235174447, -187500.02235174447, -187500.02235174447, -187500.02235174447, -187500.02235174447, 0.054, 0.018000000000000002, 0.98, 192.0, 0.0, 0.0, 0.0, 0.0, 0.0, 0.0, 0.0, 0.0, 0.0, 1.708990782816338E9, 0.0, 2024-02-26 18:39:42.816
31.0, -187500.02235174447, -187500.02235174447, 176353.09563316056, -187500.02235174447, -187500.02235174447, -187500.02235174447, -187500.02235174447, -187500.02235174447, 0.054, 0.018000000000000002, 0.98, 192.0, 0.0, 0.0, 0.0, 0.0, 0.0, 0.0, 0.0, 0.0, 0.0, 1.708990782821338E9, 0.0, 2024-02-26 18:39:42.821
32.0, -187500.02235174447, -187500.02235174447, 176266.28145769614, -187500.02235174447, -187500.02235174447, -187500.02235174447, -187500.02235174447, -187500.02235174447, 0.054, 0.018000000000000002, 0.98, 192.0, 0.0, 0.0, 0.0, 0.0, 0.0, 0.0, 0.0, 0.0, 0.0, 1.708990782824353E9, 0.0, 2024-02-26 18:39:42.824
33.0, -187500.02235174447, -187500.02235174447, 176169.99014258268, -187500.02235174447, -187500.02235174447, -187500.02235174447, -187500.02235174447, -187500.02235174447, 0.054, 0.018000000000000002, 0.98, 192.0, 0.0, 0.0, 0.0, 0.0, 0.0, 0.0, 0.0, 0.0, 0.0, 1.708990782827427E9, 0.0, 2024-02-26 18:39:42.827
34.0, -187500.02235174447, -187500.02235174447, 176075.59872574793, -187500.02235174447, -187500.02235174447, -187500.02235174447, -187500.02235174447, -187500.02235174447, 0.054, 0.018000000000000002, 0.98, 192.0, 0.0, 0.0, 0.0, 0.0, 0.0, 0.0, 0.0, 0.0, 0.0, 1.708990782832472E9, 0.0, 2024-02-26 18:39:42.832
35.0, -187500.02235174447, -187500.02235174447, 175957.6262185128, -187500.02235174447, -187500.02235174447, -187500.02235174447, -187500.02235174447, -187500.02235174447, 0.054, 0.018000000000000002, 0.98, 192.0, 0.0, 0.0, 0.0, 0.0, 0.0, 0.0, 0.0, 0.0, 0.0, 1.708990782836332E9, 0.0, 2024-02-26 18:39:42.836
36.0, -187500.02235174447, -187500.02235174447, 175846.67215903668, -187500.02235174447, -187500.02235174447, -187500.02235174447, -187500.02235174447, -187500.02235174447, 0.054, 0.018000000000000002, 0.98, 192.0, 0.0, 0.0, 0.0, 0.0, 0.0, 0.0, 0.0, 0.0, 0.0, 1.708990782840405E9, 0.0, 2024-02-26 18:39:42.840
37.0, -187500.02235174447, -187500.02235174447, 175801.83455965933, -187500.02235174447, -187500.02235174447, -187500.02235174447, -187500.02235174447, -187500.02235174447, 0.052000000000000005, 0.018000000000000002, 0.984, 192.0, 1.0, 160.0, 0.0, 144.0, 30.0, 192.0, 0.0, 0.0, 0.0, 1.70899078284435E9, 0.0, 2024-02-26 18:39:42.844
38.0, -187500.02235174447, -187500.02235174447, 175733.9299600041, -187500.02235174447, -187500.02235174447, -187500.02235174447, -187500.02235174447, -187500.02235174447, 0.052000000000000005, 0.018000000000000002, 0.984, 192.0, 0.0, 0.0, 0.0, 0.0, 0.0, 0.0, 0.0, 0.0, 0.0, 1.708990782849342E9, 0.0, 2024-02-26 18:39:42.849
39.0, -187500.02235174447, -187500.02235174447, 175584.30738262026, -187500.02235174447, -187500.02235174447, -187500.02235174447, -187500.02235174447, -187500.02235174447, 0.052000000000000005, 0.018000000000000002, 0.984, 192.0, 0.0, 0.0, 0.0, 0.0, 0.0, 0.0, 0.0, 0.0, 0.0, 1.708990782852528E9, 0.0, 2024-02-26 18:39:42.852
40.0, -187500.02235174447, -187500.02235174447, 175436.9646831709, -187500.02235174447, -187500.02235174447, -187500.02235174447, -187500.02235174447, -187500.02235174447, 0.052000000000000005, 0.018000000000000002, 0.984, 192.0, 0.0, 0.0, 0.0, 0.0, 0.0, 0.0, 0.0, 0.0, 0.0, 1.708990782855339E9, 0.0, 2024-02-26 18:39:42.855
41.0, -187500.02235174447, -187500.02235174447, 175337.45471685586, -187500.02235174447, -187500.02235174447, -187500.02235174447, -187500.02235174447, -187500.02235174447, 0.052000000000000005, 0.018000000000000002, 0.984, 192.0, 0.0, 0.0, 0.0, 0.0, 0.0, 0.0, 0.0, 0.0, 0.0, 1.708990782860385E9, 0.0, 2024-02-26 18:39:42.860
42.0, -187500.02235174447, -187500.02235174447, 175358.7335775773, -187500.02235174447, -187500.02235174447, -187500.02235174447, -187500.02235174447, -187500.02235174447, 0.052000000000000005, 0.018000000000000002, 0.984, 192.0, 0.0, 0.0, 0.0, 0.0, 0.0, 0.0, 0.0, 0.0, 0.0, 1.708990782864386E9, 0.0, 2024-02-26 18:39:42.864
43.0, -187500.02235174447, -187500.02235174447, 175425.52059000978, -187500.02235174447, -187500.02235174447, -187500.02235174447, -187500.02235174447, -187500.02235174447, 0.052000000000000005, 0.018000000000000002, 0.984, 192.0, 0.0, 0.0, 0.0, 0.0, 0.0, 0.0, 0.0, 0.0, 0.0, 1.708990782868391E9, 0.0, 2024-02-26 18:39:42.868
44.0, -187500.02235174447, -187500.02235174447, 175465.93254398496, -187500.02235174447, -187500.02235174447, -187500.02235174447, -187500.02235174447, -187500.02235174447, 0.052000000000000005, 0.018000000000000002, 0.984, 192.0, 0.0, 0.0, 0.0, 0.0, 0.0, 0.0, 0.0, 0.0, 0.0, 1.708990782872394E9, 0.0, 2024-02-26 18:39:42.872
45.0, -187500.02235174447, -187500.02235174447, 175516.67100389852, -187500.02235174447, -187500.02235174447, -187500.02235174447, -187500.02235174447, -187500.02235174447, 0.052000000000000005, 0.018000000000000002, 0.984, 192.0, 0.0, 0.0, 0.0, 0.0, 0.0, 0.0, 0.0, 0.0, 0.0, 1.708990782878059E9, 0.0, 2024-02-26 18:39:42.878
46.0, -187500.02235174447, -187500.02235174447, 175604.20043518548, -187500.02235174447, -187500.02235174447, -187500.02235174447, -187500.02235174447, -187500.02235174447, 0.052000000000000005, 0.018000000000000002, 0.984, 192.0, 0.0, 0.0, 0.0, 0.0, 0.0, 0.0, 0.0, 0.0, 0.0, 1.708990782880385E9, 0.0, 2024-02-26 18:39:42.880
47.0, -187500.02235174447, -187500.02235174447, 175724.4751720995, -187500.02235174447, -187500.02235174447, -187500.02235174447, -187500.02235174447, -187500.02235174447, 0.056, 0.018000000000000002, 0.974, 192.0, 1.0, 192.0, 0.0, 144.0, 30.0, 112.0, 0.0, 0.0, 0.0, 1.708990782883388E9, 0.0, 2024-02-26 18:39:42.883
48.0, -187500.02235174447, -187500.02235174447, 175779.5498704374, -187500.02235174447, -187500.02235174447, -187500.02235174447, -187500.02235174447, -187500.02235174447, 0.056, 0.018000000000000002, 0.974, 192.0, 0.0, 0.0, 0.0, 0.0, 0.0, 0.0, 0.0, 0.0, 0.0, 1.708990782888384E9, 0.0, 2024-02-26 18:39:42.888
49.0, -187500.02235174447, -187500.02235174447, 175777.15823378068, -187500.02235174447, -187500.02235174447, -187500.02235174447, -187500.02235174447, -187500.02235174447, 0.056, 0.018000000000000002, 0.974, 192.0, 0.0, 0.0, 0.0, 0.0, 0.0, 0.0, 0.0, 0.0, 0.0, 1.708990782892394E9, 0.0, 2024-02-26 18:39:42.892
50.0, -187500.02235174447, -187500.02235174447, 175788.33410600832, -187500.02235174447, -187500.02235174447, -187500.02235174447, -187500.02235174447, -187500.02235174447, 0.056, 0.018000000000000002, 0.974, 192.0, 0.0, 0.0, 0.0, 0.0, 0.0, 0.0, 0.0, 0.0, 0.0, 1.708990782896394E9, 0.0, 2024-02-26 18:39:42.896
51.0, -187500.02235174447, -187500.02235174447, 175856.39516787473, -187500.02235174447, -187500.02235174447, -187500.02235174447, -187500.02235174447, -187500.02235174447, 0.056, 0.018000000000000002, 0.974, 192.0, 0.0, 0.0, 0.0, 0.0, 0.0, 0.0, 0.0, 0.0, 0.0, 1.708990782900397E9, 0.0, 2024-02-26 18:39:42.900
52.0, -187500.02235174447, -187500.02235174447, 175971.75252100857, -187500.02235174447, -187500.02235174447, -187500.02235174447, -187500.02235174447, -187500.02235174447, 0.056, 0.018000000000000002, 0.974, 192.0, 0.0, 0.0, 0.0, 0.0, 0.0, 0.0, 0.0, 0.0, 0.0, 1.708990782904408E9, 0.0, 2024-02-26 18:39:42.904
53.0, -187500.02235174447, -187500.02235174447, 176087.78042647606, -187500.02235174447, -187500.02235174447, -187500.02235174447, -187500.02235174447, -187500.02235174447, 0.056, 0.018000000000000002, 0.974, 192.0, 0.0, 0.0, 0.0, 0.0, 0.0, 0.0, 0.0, 0.0, 0.0, 1.708990782908422E9, 0.0, 2024-02-26 18:39:42.908
54.0, -187500.02235174447, -187500.02235174447, 176222.31557635256, -187500.02235174447, -187500.02235174447, -187500.02235174447, -187500.02235174447, -187500.02235174447, 0.056, 0.018000000000000002, 0.974, 192.0, 0.0, 0.0, 0.0, 0.0, 0.0, 0.0, 0.0, 0.0, 0.0, 1.708990782911431E9, 0.0, 2024-02-26 18:39:42.911
55.0, -187500.02235174447, -187500.02235174447, 176378.1742904394, -187500.02235174447, -187500.02235174447, -187500.02235174447, -187500.02235174447, -187500.02235174447, 0.056, 0.018000000000000002, 0.974, 192.0, 0.0, 0.0, 0.0, 0.0, 0.0, 0.0, 0.0, 0.0, 0.0, 1.708990782916415E9, 0.0, 2024-02-26 18:39:42.916
56.0, -187500.02235174447, -187500.02235174447, 176523.23711195437, -187500.02235174447, -187500.02235174447, -187500.02235174447, -187500.02235174447, -187500.02235174447, 0.056, 0.018000000000000002, 0.974, 192.0, 0.0, 0.0, 0.0, 0.0, 0.0, 0.0, 0.0, 0.0, 0.0, 1.708990782920433E9, 0.0, 2024-02-26 18:39:42.920
57.0, -187500.02235174447, -187500.02235174447, 176667.0929392687, -187500.02235174447, -187500.02235174447, -187500.02235174447, -187500.02235174447, -187500.02235174447, 0.056, 0.018000000000000002, 0.974, 192.0, 1.0, 192.0, 0.0, 144.0, 30.0, 112.0, 0.0, 0.0, 0.0, 1.708990782924431E9, 0.0, 2024-02-26 18:39:42.924
58.0, -187500.02235174447, -187500.02235174447, 176832.20527556006, -187500.02235174447, -187500.02235174447, -187500.02235174447, -187500.02235174447, -187500.02235174447, 0.056, 0.018000000000000002, 0.974, 192.0, 0.0, 0.0, 0.0, 0.0, 0.0, 0.0, 0.0, 0.0, 0.0, 1.708990782928463E9, 0.0, 2024-02-26 18:39:42.928
59.0, -187500.02235174447, -187500.02235174447, 177029.66058607824, -187500.02235174447, -187500.02235174447, -187500.02235174447, -187500.02235174447, -187500.02235174447, 0.056, 0.018000000000000002, 0.974, 192.0, 0.0, 0.0, 0.0, 0.0, 0.0, 0.0, 0.0, 0.0, 0.0, 1.708990782932451E9, 0.0, 2024-02-26 18:39:42.932
60.0, -187500.02235174447, -187500.02235174447, 177241.71158572574, -187500.02235174447, -187500.02235174447, -187500.02235174447, -187500.02235174447, -187500.02235174447, 0.056, 0.018000000000000002, 0.974, 192.0, 0.0, 0.0, 0.0, 0.0, 0.0, 0.0, 0.0, 0.0, 0.0, 1.708990782936497E9, 0.0, 2024-02-26 18:39:42.936
61.0, -187500.02235174447, -187500.02235174447, 177459.12700404253, -187500.02235174447, -187500.02235174447, -187500.02235174447, -187500.02235174447, -187500.02235174447, 0.056, 0.018000000000000002, 0.974, 192.0, 0.0, 0.0, 0.0, 0.0, 0.0, 0.0, 0.0, 0.0, 0.0, 1.70899078293946E9, 0.0, 2024-02-26 18:39:42.939
62.0, -187500.02235174447, -187500.02235174447, 177691.5851463777, -187500.02235174447, -187500.02235174447, -187500.02235174447, -187500.02235174447, -187500.02235174447, 0.056, 0.018000000000000002, 0.974, 192.0, 0.0, 0.0, 0.0, 0.0, 0.0, 0.0, 0.0, 0.0, 0.0, 1.708990782943466E9, 0.0, 2024-02-26 18:39:42.943
63.0, -187500.02235174447, -187500.02235174447, 177962.98002755406, -187500.02235174447, -187500.02235174447, -187500.02235174447, -187500.02235174447, -187500.02235174447, 0.056, 0.018000000000000002, 0.974, 192.0, 0.0, 0.0, 0.0, 0.0, 0.0, 0.0, 0.0, 0.0, 0.0, 1.708990782948473E9, 0.0, 2024-02-26 18:39:42.948
64.0, -187500.02235174447, -187500.02235174447, 178262.0240166216, -187500.02235174447, -187500.02235174447, -187500.02235174447, -187500.02235174447, -187500.02235174447, 0.056, 0.018000000000000002, 0.974, 192.0, 0.0, 0.0, 0.0, 0.0, 0.0, 0.0, 0.0, 0.0, 0.0, 1.70899078295246E9, 0.0, 2024-02-26 18:39:42.952
65.0, -187500.02235174447, -187500.02235174447, 178542.67252000244, -187500.02235174447, -187500.02235174447, -187500.02235174447, -187500.02235174447, -187500.02235174447, 0.056, 0.018000000000000002, 0.974, 192.0, 0.0, 0.0, 0.0, 0.0, 0.0, 0.0, 0.0, 0.0, 0.0, 1.708990782956456E9, 0.0, 2024-02-26 18:39:42.956
66.0, -187500.02235174447, -187500.02235174447, 178822.62811930515, -187500.02235174447, -187500.02235174447, -187500.02235174447, -187500.02235174447, -187500.02235174447, 0.056, 0.018000000000000002, 0.974, 192.0, 0.0, 0.0, 0.0, 0.0, 0.0, 0.0, 0.0, 0.0, 0.0, 1.708990782959455E9, 0.0, 2024-02-26 18:39:42.959
67.0, -187500.02235174447, -187500.02235174447, 179091.94428824715, -187500.02235174447, -187500.02235174447, -187500.02235174447, -187500.02235174447, -187500.02235174447, 0.052000000000000005, 0.018000000000000002, 0.978, 192.0, 1.0, 160.0, 0.0, 144.0, 30.0, 144.0, 0.0, 0.0, 0.0, 1.708990782963466E9, 0.0, 2024-02-26 18:39:42.963
68.0, -187500.02235174447, -187500.02235174447, 179342.5296953356, -187500.02235174447, -187500.02235174447, -187500.02235174447, -187500.02235174447, -187500.02235174447, 0.052000000000000005, 0.018000000000000002, 0.978, 192.0, 0.0, 0.0, 0.0, 0.0, 0.0, 0.0, 0.0, 0.0, 0.0, 1.708990782967495E9, 0.0, 2024-02-26 18:39:42.967
69.0, -187500.02235174447, -187500.02235174447, 179566.3824160555, -187500.02235174447, -187500.02235174447, -187500.02235174447, -187500.02235174447, -187500.02235174447, 0.052000000000000005, 0.018000000000000002, 0.978, 192.0, 0.0, 0.0, 0.0, 0.0, 0.0, 0.0, 0.0, 0.0, 0.0, 1.708990782973465E9, 0.0, 2024-02-26 18:39:42.973
70.0, -187500.02235174447, -187500.02235174447, 179771.16909875502, -187500.02235174447, -187500.02235174447, -187500.02235174447, -187500.02235174447, -187500.02235174447, 0.052000000000000005, 0.018000000000000002, 0.978, 192.0, 0.0, 0.0, 0.0, 0.0, 0.0, 0.0, 0.0, 0.0, 0.0, 1.708990782976473E9, 0.0, 2024-02-26 18:39:42.976
71.0, -187500.02235174447, -187500.02235174447, 179992.7866450294, -187500.02235174447, -187500.02235174447, -187500.02235174447, -187500.02235174447, -187500.02235174447, 0.052000000000000005, 0.018000000000000002, 0.978, 192.0, 0.0, 0.0, 0.0, 0.0, 0.0, 0.0, 0.0, 0.0, 0.0, 1.708990782980501E9, 0.0, 2024-02-26 18:39:42.980
72.0, -187500.02235174447, -187500.02235174447, 180215.92410992674, -187500.02235174447, -187500.02235174447, -187500.02235174447, -187500.02235174447, -187500.02235174447, 0.052000000000000005, 0.018000000000000002, 0.978, 192.0, 0.0, 0.0, 0.0, 0.0, 0.0, 0.0, 0.0, 0.0, 0.0, 1.708990782984502E9, 0.0, 2024-02-26 18:39:42.984
73.0, -187500.02235174447, -187500.02235174447, 180427.6398334074, -187500.02235174447, -187500.02235174447, -187500.02235174447, -187500.02235174447, -187500.02235174447, 0.052000000000000005, 0.018000000000000002, 0.978, 192.0, 0.0, 0.0, 0.0, 0.0, 0.0, 0.0, 0.0, 0.0, 0.0, 1.708990782987516E9, 0.0, 2024-02-26 18:39:42.987
74.0, -187500.02235174447, -187500.02235174447, 180634.50522834127, -187500.02235174447, -187500.02235174447, -187500.02235174447, -187500.02235174447, -187500.02235174447, 0.052000000000000005, 0.018000000000000002, 0.978, 192.0, 0.0, 0.0, 0.0, 0.0, 0.0, 0.0, 0.0, 0.0, 0.0, 1.708990782991503E9, 0.0, 2024-02-26 18:39:42.991
75.0, -187500.02235174447, -187500.02235174447, 180845.2374750659, -187500.02235174447, -187500.02235174447, -187500.02235174447, -187500.02235174447, -187500.02235174447, 0.052000000000000005, 0.018000000000000002, 0.978, 192.0, 0.0, 0.0, 0.0, 0.0, 0.0, 0.0, 0.0, 0.0, 0.0, 1.708990782995506E9, 0.0, 2024-02-26 18:39:42.995
76.0, -187500.02235174447, -187500.02235174447, 181049.3312536873, -187500.02235174447, -187500.02235174447, -187500.02235174447, -187500.02235174447, -187500.02235174447, 0.052000000000000005, 0.018000000000000002, 0.978, 192.0, 0.0, 0.0, 0.0, 0.0, 0.0, 0.0, 0.0, 0.0, 0.0, 1.708990782999507E9, 0.0, 2024-02-26 18:39:42.999
77.0, -187500.02235174447, -187500.02235174447, 181240.528075758, -187500.02235174447, -187500.02235174447, -187500.02235174447, -187500.02235174447, -187500.02235174447, 0.052000000000000005, 0.018000000000000002, 0.98, 192.0, 1.0, 160.0, 0.0, 144.0, 30.0, 160.0, 0.0, 0.0, 0.0, 1.708990783004507E9, 0.0, 2024-02-26 18:39:43.004
78.0, -187500.02235174447, -187500.02235174447, 181417.10685695492, -187500.02235174447, -187500.02235174447, -187500.02235174447, -187500.02235174447, -187500.02235174447, 0.052000000000000005, 0.018000000000000002, 0.98, 192.0, 0.0, 0.0, 0.0, 0.0, 0.0, 0.0, 0.0, 0.0, 0.0, 1.708990783008506E9, 0.0, 2024-02-26 18:39:43.008
79.0, -187500.02235174447, -187500.02235174447, 181592.6574579069, -187500.02235174447, -187500.02235174447, -187500.02235174447, -187500.02235174447, -187500.02235174447, 0.052000000000000005, 0.018000000000000002, 0.98, 192.0, 0.0, 0.0, 0.0, 0.0, 0.0, 0.0, 0.0, 0.0, 0.0, 1.708990783012504E9, 0.0, 2024-02-26 18:39:43.012
80.0, -187500.02235174447, -187500.02235174447, 181772.0078554163, -187500.02235174447, -187500.02235174447, -187500.02235174447, -187500.02235174447, -187500.02235174447, 0.052000000000000005, 0.018000000000000002, 0.98, 192.0, 0.0, 0.0, 0.0, 0.0, 0.0, 0.0, 0.0, 0.0, 0.0, 1.708990783015553E9, 0.0, 2024-02-26 18:39:43.015
81.0, -187500.02235174447, -187500.02235174447, 181952.9005232931, -187500.02235174447, -187500.02235174447, -187500.02235174447, -187500.02235174447, -187500.02235174447, 0.052000000000000005, 0.018000000000000002, 0.98, 192.0, 0.0, 0.0, 0.0, 0.0, 0.0, 0.0, 0.0, 0.0, 0.0, 1.708990783019549E9, 0.0, 2024-02-26 18:39:43.019
82.0, -187500.02235174447, -187500.02235174447, 182115.91179560564, -187500.02235174447, -187500.02235174447, -187500.02235174447, -187500.02235174447, -187500.02235174447, 0.052000000000000005, 0.018000000000000002, 0.98, 192.0, 0.0, 0.0, 0.0, 0.0, 0.0, 0.0, 0.0, 0.0, 0.0, 1.708990783023552E9, 0.0, 2024-02-26 18:39:43.023
83.0, -187500.02235174447, -187500.02235174447, 182284.35454182085, -187500.02235174447, -187500.02235174447, -187500.02235174447, -187500.02235174447, -187500.02235174447, 0.052000000000000005, 0.018000000000000002, 0.98, 192.0, 0.0, 0.0, 0.0, 0.0, 0.0, 0.0, 0.0, 0.0, 0.0, 1.708990783027546E9, 0.0, 2024-02-26 18:39:43.027
84.0, -187500.02235174447, -187500.02235174447, 182460.03925323955, -187500.02235174447, -187500.02235174447, -187500.02235174447, -187500.02235174447, -187500.02235174447, 0.052000000000000005, 0.018000000000000002, 0.98, 192.0, 0.0, 0.0, 0.0, 0.0, 0.0, 0.0, 0.0, 0.0, 0.0, 1.70899078303255E9, 0.0, 2024-02-26 18:39:43.032
85.0, -187500.02235174447, -187500.02235174447, 182616.61322314898, -187500.02235174447, -187500.02235174447, -187500.02235174447, -187500.02235174447, -187500.02235174447, 0.052000000000000005, 0.018000000000000002, 0.98, 192.0, 0.0, 0.0, 0.0, 0.0, 0.0, 0.0, 0.0, 0.0, 0.0, 1.70899078303655E9, 0.0, 2024-02-26 18:39:43.036
86.0, -187500.02235174447, -187500.02235174447, 182758.6809109069, -187500.02235174447, -187500.02235174447, -187500.02235174447, -187500.02235174447, -187500.02235174447, 0.052000000000000005, 0.018000000000000002, 0.98, 192.0, 0.0, 0.0, 0.0, 0.0, 0.0, 0.0, 0.0, 0.0, 0.0, 1.708990783040557E9, 0.0, 2024-02-26 18:39:43.040
87.0, -187500.02235174447, -187500.02235174447, 182892.1208253051, -187500.02235174447, -187500.02235174447, -187500.02235174447, -187500.02235174447, -187500.02235174447, 0.05, 0.016, 0.984, 192.0, 1.0, 144.0, 0.0, 128.0, 30.0, 192.0, 0.0, 0.0, 0.0, 1.708990783043548E9, 0.0, 2024-02-26 18:39:43.043
88.0, -187500.02235174447, -187500.02235174447, 183023.12439955765, -187500.02235174447, -187500.02235174447, -187500.02235174447, -187500.02235174447, -187500.02235174447, 0.05, 0.016, 0.984, 192.0, 0.0, 0.0, 0.0, 0.0, 0.0, 0.0, 0.0, 0.0, 0.0, 1.708990783047547E9, 0.0, 2024-02-26 18:39:43.047
89.0, -187500.02235174447, -187500.02235174447, 183146.95306384005, -187500.02235174447, -187500.02235174447, -187500.02235174447, -187500.02235174447, -187500.02235174447, 0.05, 0.016, 0.984, 192.0, 0.0, 0.0, 0.0, 0.0, 0.0, 0.0, 0.0, 0.0, 0.0, 1.708990783051555E9, 0.0, 2024-02-26 18:39:43.051
90.0, -187500.02235174447, -187500.02235174447, 183257.43773668262, -187500.02235174447, -187500.02235174447, -187500.02235174447, -187500.02235174447, -187500.02235174447, 0.05, 0.016, 0.984, 192.0, 0.0, 0.0, 0.0, 0.0, 0.0, 0.0, 0.0, 0.0, 0.0, 1.708990783055598E9, 0.0, 2024-02-26 18:39:43.055
91.0, -187500.02235174447, -187500.02235174447, 183364.05555773445, -187500.02235174447, -187500.02235174447, -187500.02235174447, -187500.02235174447, -187500.02235174447, 0.05, 0.016, 0.984, 192.0, 0.0, 0.0, 0.0, 0.0, 0.0, 0.0, 0.0, 0.0, 0.0, 1.7089907830606E9, 0.0, 2024-02-26 18:39:43.060
92.0, -187500.02235174447, -187500.02235174447, 183494.79091105354, -187500.02235174447, -187500.02235174447, -187500.02235174447, -187500.02235174447, -187500.02235174447, 0.05, 0.016, 0.984, 192.0, 0.0, 0.0, 0.0, 0.0, 0.0, 0.0, 0.0, 0.0, 0.0, 1.708990783064601E9, 0.0, 2024-02-26 18:39:43.064
93.0, -187500.02235174447, -187500.02235174447, 183621.3911916484, -187500.02235174447, -187500.02235174447, -187500.02235174447, -187500.02235174447, -187500.02235174447, 0.05, 0.016, 0.984, 192.0, 0.0, 0.0, 0.0, 0.0, 0.0, 0.0, 0.0, 0.0, 0.0, 1.708990783068595E9, 0.0, 2024-02-26 18:39:43.068
94.0, -187500.02235174447, -187500.02235174447, 183747.94676875434, -187500.02235174447, -187500.02235174447, -187500.02235174447, -187500.02235174447, -187500.02235174447, 0.05, 0.016, 0.984, 192.0, 0.0, 0.0, 0.0, 0.0, 0.0, 0.0, 0.0, 0.0, 0.0, 1.708990783071603E9, 0.0, 2024-02-26 18:39:43.071
95.0, -187500.02235174447, -187500.02235174447, 183858.83377299714, -187500.02235174447, -187500.02235174447, -187500.02235174447, -187500.02235174447, -187500.02235174447, 0.05, 0.016, 0.984, 192.0, 0.0, 0.0, 0.0, 0.0, 0.0, 0.0, 0.0, 0.0, 0.0, 1.708990783075604E9, 0.0, 2024-02-26 18:39:43.075
96.0, -187500.02235174447, -187500.02235174447, 183981.58955354567, -187500.02235174447, -187500.02235174447, -187500.02235174447, -187500.02235174447, -187500.02235174447, 0.048, 0.01, 0.986, 192.0, 1.0, 128.0, 0.0, 80.0, 30.0, 208.0, 0.0, 0.0, 0.0, 1.708990783079601E9, 0.0, 2024-02-26 18:39:43.079
97.0, -187500.02235174447, -187500.02235174447, 184102.78071198234, -187500.02235174447, -187500.02235174447, -187500.02235174447, -187500.02235174447, -187500.02235174447, 0.048, 0.01, 0.986, 192.0, 0.0, 0.0, 0.0, 0.0, 0.0, 0.0, 0.0, 0.0, 0.0, 1.70899078308363E9, 0.0, 2024-02-26 18:39:43.083
98.0, -187500.02235174447, -187500.02235174447, 184208.0350766224, -187500.02235174447, -187500.02235174447, -187500.02235174447, -187500.02235174447, -187500.02235174447, 0.048, 0.01, 0.986, 192.0, 0.0, 0.0, 0.0, 0.0, 0.0, 0.0, 0.0, 0.0, 0.0, 1.708990783087633E9, 0.0, 2024-02-26 18:39:43.087
99.0, -187500.02235174447, -187500.02235174447, 184302.5606039239, -187500.02235174447, -187500.02235174447, -187500.02235174447, -187500.02235174447, -187500.02235174447, 0.048, 0.01, 0.986, 192.0, 0.0, 0.0, 0.0, 0.0, 0.0, 0.0, 0.0, 0.0, 0.0, 1.708990783092637E9, 0.0, 2024-02-26 18:39:43.092
100.0, -187500.02235174447, -187500.02235174447, 184404.03752375097, -187500.02235174447, -187500.02235174447, -187500.02235174447, -187500.02235174447, -187500.02235174447, 0.048, 0.01, 0.986, 192.0, 0.0, 0.0, 0.0, 0.0, 0.0, 0.0, 0.0, 0.0, 0.0, 1.70899078309563E9, 0.0, 2024-02-26 18:39:43.095
101.0, -187500.02235174447, -187500.02235174447, 184478.26766708706, -187500.02235174447, -187500.02235174447, -187500.02235174447, -187500.02235174447, -187500.02235174447, 0.048, 0.01, 0.986, 192.0, 0.0, 0.0, 0.0, 0.0, 0.0, 0.0, 0.0, 0.0, 0.0, 1.708990783099635E9, 0.0, 2024-02-26 18:39:43.099
102.0, -187500.02235174447, -187500.02235174447, 184498.2054231412, -187500.02235174447, -187500.02235174447, -187500.02235174447, -187500.02235174447, -187500.02235174447, 0.048, 0.01, 0.986, 192.0, 0.0, 0.0, 0.0, 0.0, 0.0, 0.0, 0.0, 0.0, 0.0, 1.708990783103631E9, 0.0, 2024-02-26 18:39:43.103
103.0, -187500.02235174447, -187500.02235174447, 184511.61646981438, -187500.02235174447, -187500.02235174447, -187500.02235174447, -187500.02235174447, -187500.02235174447, 0.048, 0.01, 0.986, 192.0, 0.0, 0.0, 0.0, 0.0, 0.0, 0.0, 0.0, 0.0, 0.0, 1.708990783107634E9, 0.0, 2024-02-26 18:39:43.107
104.0, -187500.02235174447, -187500.02235174447, 184538.08093524945, -187500.02235174447, -187500.02235174447, -187500.02235174447, -187500.02235174447, -187500.02235174447, 0.048, 0.01, 0.986, 192.0, 0.0, 0.0, 0.0, 0.0, 0.0, 0.0, 0.0, 0.0, 0.0, 1.708990783111631E9, 0.0, 2024-02-26 18:39:43.111
105.0, -187500.02235174447, -187500.02235174447, 184577.8670403799, -187500.02235174447, -187500.02235174447, -187500.02235174447, -187500.02235174447, -187500.02235174447, 0.048, 0.01, 0.986, 192.0, 0.0, 0.0, 0.0, 0.0, 0.0, 0.0, 0.0, 0.0, 0.0, 1.708990783115642E9, 0.0, 2024-02-26 18:39:43.115
106.0, -187500.02235174447, -187500.02235174447, 184599.43647377926, -187500.02235174447, -187500.02235174447, -187500.02235174447, -187500.02235174447, -187500.02235174447, 0.052000000000000005, 0.008, 0.98, 192.0, 1.0, 160.0, 0.0, 64.0, 30.0, 160.0, 0.0, 0.0, 0.0, 1.708990783120648E9, 0.0, 2024-02-26 18:39:43.120
107.0, -187500.02235174447, -187500.02235174447, 184612.15461637435, -187500.02235174447, -187500.02235174447, -187500.02235174447, -187500.02235174447, -187500.02235174447, 0.052000000000000005, 0.008, 0.98, 192.0, 0.0, 0.0, 0.0, 0.0, 0.0, 0.0, 0.0, 0.0, 0.0, 1.708990783123677E9, 0.0, 2024-02-26 18:39:43.123
108.0, -187500.02235174447, -187500.02235174447, 184630.34893636097, -187500.02235174447, -187500.02235174447, -187500.02235174447, -187500.02235174447, -187500.02235174447, 0.052000000000000005, 0.008, 0.98, 192.0, 0.0, 0.0, 0.0, 0.0, 0.0, 0.0, 0.0, 0.0, 0.0, 1.70899078312769E9, 0.0, 2024-02-26 18:39:43.127
109.0, -187500.02235174447, -187500.02235174447, 184660.36732916444, -187500.02235174447, -187500.02235174447, -187500.02235174447, -187500.02235174447, -187500.02235174447, 0.052000000000000005, 0.008, 0.98, 192.0, 0.0, 0.0, 0.0, 0.0, 0.0, 0.0, 0.0, 0.0, 0.0, 1.708990783131688E9, 0.0, 2024-02-26 18:39:43.131
110.0, -187500.02235174447, -187500.02235174447, 184688.21760275576, -187500.02235174447, -187500.02235174447, -187500.02235174447, -187500.02235174447, -187500.02235174447, 0.052000000000000005, 0.008, 0.98, 192.0, 0.0, 0.0, 0.0, 0.0, 0.0, 0.0, 0.0, 0.0, 0.0, 1.708990783135699E9, 0.0, 2024-02-26 18:39:43.135
111.0, -187500.02235174447, -187500.02235174447, 184713.4527222458, -187500.02235174447, -187500.02235174447, -187500.02235174447, -187500.02235174447, -187500.02235174447, 0.052000000000000005, 0.008, 0.98, 192.0, 0.0, 0.0, 0.0, 0.0, 0.0, 0.0, 0.0, 0.0, 0.0, 1.708990783139698E9, 0.0, 2024-02-26 18:39:43.139
112.0, -187500.02235174447, -187500.02235174447, 184729.18835034233, -187500.02235174447, -187500.02235174447, -187500.02235174447, -187500.02235174447, -187500.02235174447, 0.052000000000000005, 0.008, 0.98, 192.0, 0.0, 0.0, 0.0, 0.0, 0.0, 0.0, 0.0, 0.0, 0.0, 1.7089907831437E9, 0.0, 2024-02-26 18:39:43.143
113.0, -187500.02235174447, -187500.02235174447, 184747.71794649577, -187500.02235174447, -187500.02235174447, -187500.02235174447, -187500.02235174447, -187500.02235174447, 0.052000000000000005, 0.008, 0.98, 192.0, 0.0, 0.0, 0.0, 0.0, 0.0, 0.0, 0.0, 0.0, 0.0, 1.708990783148691E9, 0.0, 2024-02-26 18:39:43.148
114.0, -187500.02235174447, -187500.02235174447, 184764.23588564826, -187500.02235174447, -187500.02235174447, -187500.02235174447, -187500.02235174447, -187500.02235174447, 0.052000000000000005, 0.008, 0.98, 192.0, 0.0, 0.0, 0.0, 0.0, 0.0, 0.0, 0.0, 0.0, 0.0, 1.708990783151682E9, 0.0, 2024-02-26 18:39:43.151
115.0, -187500.02235174447, -187500.02235174447, 184772.863659008, -187500.02235174447, -187500.02235174447, -187500.02235174447, -187500.02235174447, -187500.02235174447, 0.052000000000000005, 0.008, 0.98, 192.0, 0.0, 0.0, 0.0, 0.0, 0.0, 0.0, 0.0, 0.0, 0.0, 1.708990783155683E9, 0.0, 2024-02-26 18:39:43.155
116.0, -187500.02235174447, -187500.02235174447, 184768.48271709477, -187500.02235174447, -187500.02235174447, -187500.02235174447, -187500.02235174447, -187500.02235174447, 0.056, 0.01, 0.978, 192.0, 1.0, 192.0, 0.0, 80.0, 30.0, 144.0, 0.0, 0.0, 0.0, 1.708990783159686E9, 0.0, 2024-02-26 18:39:43.159
117.0, -187500.02235174447, -187500.02235174447, 184779.92681025589, -187500.02235174447, -187500.02235174447, -187500.02235174447, -187500.02235174447, -187500.02235174447, 0.056, 0.01, 0.978, 192.0, 0.0, 0.0, 0.0, 0.0, 0.0, 0.0, 0.0, 0.0, 0.0, 1.708990783163727E9, 0.0, 2024-02-26 18:39:43.163
118.0, -187500.02235174447, -187500.02235174447, 184794.14251972944, -187500.02235174447, -187500.02235174447, -187500.02235174447, -187500.02235174447, -187500.02235174447, 0.056, 0.01, 0.978, 192.0, 0.0, 0.0, 0.0, 0.0, 0.0, 0.0, 0.0, 0.0, 0.0, 1.708990783167732E9, 0.0, 2024-02-26 18:39:43.167
119.0, -187500.02235174447, -187500.02235174447, 184804.0219907787, -187500.02235174447, -187500.02235174447, -187500.02235174447, -187500.02235174447, -187500.02235174447, 0.056, 0.01, 0.978, 192.0, 0.0, 0.0, 0.0, 0.0, 0.0, 0.0, 0.0, 0.0, 0.0, 1.708990783171719E9, 0.0, 2024-02-26 18:39:43.171
120.0, -187500.02235174447, -187500.02235174447, 184804.11139775653, -187500.02235174447, -187500.02235174447, -187500.02235174447, -187500.02235174447, -187500.02235174447, 0.056, 0.01, 0.978, 192.0, 0.0, 0.0, 0.0, 0.0, 0.0, 0.0, 0.0, 0.0, 0.0, 1.708990783176723E9, 0.0, 2024-02-26 18:39:43.176
121.0, -187500.02235174447, -187500.02235174447, 184809.92285131488, -187500.02235174447, -187500.02235174447, -187500.02235174447, -187500.02235174447, -187500.02235174447, 0.056, 0.01, 0.978, 192.0, 0.0, 0.0, 0.0, 0.0, 0.0, 0.0, 0.0, 0.0, 0.0, 1.708990783179722E9, 0.0, 2024-02-26 18:39:43.179
122.0, -187500.02235174447, -187500.02235174447, 184818.26005199674, -187500.02235174447, -187500.02235174447, -187500.02235174447, -187500.02235174447, -187500.02235174447, 0.056, 0.01, 0.978, 192.0, 0.0, 0.0, 0.0, 0.0, 0.0, 0.0, 0.0, 0.0, 0.0, 1.708990783183721E9, 0.0, 2024-02-26 18:39:43.183
123.0, -187500.02235174447, -187500.02235174447, 184821.47870319829, -187500.02235174447, -187500.02235174447, -187500.02235174447, -187500.02235174447, -187500.02235174447, 0.056, 0.01, 0.978, 192.0, 0.0, 0.0, 0.0, 0.0, 0.0, 0.0, 0.0, 0.0, 0.0, 1.708990783187724E9, 0.0, 2024-02-26 18:39:43.187
124.0, -187500.02235174447, -187500.02235174447, 184816.31545022913, -187500.02235174447, -187500.02235174447, -187500.02235174447, -187500.02235174447, -187500.02235174447, 0.056, 0.01, 0.978, 192.0, 0.0, 0.0, 0.0, 0.0, 0.0, 0.0, 0.0, 0.0, 0.0, 1.708990783191724E9, 0.0, 2024-02-26 18:39:43.191
125.0, -187500.02235174447, -187500.02235174447, 184823.98209857728, -187500.02235174447, -187500.02235174447, -187500.02235174447, -187500.02235174447, -187500.02235174447, 0.056, 0.01, 0.978, 192.0, 0.0, 0.0, 0.0, 0.0, 0.0, 0.0, 0.0, 0.0, 0.0, 1.708990783195721E9, 0.0, 2024-02-26 18:39:43.195
126.0, -187500.02235174447, -187500.02235174447, 184838.7789534067, -187500.02235174447, -187500.02235174447, -187500.02235174447, -187500.02235174447, -187500.02235174447, 0.052000000000000005, 0.012, 0.98, 192.0, 1.0, 160.0, 0.0, 96.0, 30.0, 160.0, 0.0, 0.0, 0.0, 1.708990783199765E9, 0.0, 2024-02-26 18:39:43.199
127.0, -187500.02235174447, -187500.02235174447, 184840.0753545851, -187500.02235174447, -187500.02235174447, -187500.02235174447, -187500.02235174447, -187500.02235174447, 0.052000000000000005, 0.012, 0.98, 192.0, 0.0, 0.0, 0.0, 0.0, 0.0, 0.0, 0.0, 0.0, 0.0, 1.708990783204767E9, 0.0, 2024-02-26 18:39:43.204
128.0, -187500.02235174447, -187500.02235174447, 184825.3232032446, -187500.02235174447, -187500.02235174447, -187500.02235174447, -187500.02235174447, -187500.02235174447, 0.052000000000000005, 0.012, 0.98, 192.0, 0.0, 0.0, 0.0, 0.0, 0.0, 0.0, 0.0, 0.0, 0.0, 1.708990783207769E9, 0.0, 2024-02-26 18:39:43.207
129.0, -187500.02235174447, -187500.02235174447, 184816.49426418476, -187500.02235174447, -187500.02235174447, -187500.02235174447, -187500.02235174447, -187500.02235174447, 0.052000000000000005, 0.012, 0.98, 192.0, 0.0, 0.0, 0.0, 0.0, 0.0, 0.0, 0.0, 0.0, 0.0, 1.708990783211763E9, 0.0, 2024-02-26 18:39:43.211
130.0, -187500.02235174447, -187500.02235174447, 184816.15898801794, -187500.02235174447, -187500.02235174447, -187500.02235174447, -187500.02235174447, -187500.02235174447, 0.052000000000000005, 0.012, 0.98, 192.0, 0.0, 0.0, 0.0, 0.0, 0.0, 0.0, 0.0, 0.0, 0.0, 1.708990783215763E9, 0.0, 2024-02-26 18:39:43.215
131.0, -187500.02235174447, -187500.02235174447, 184808.22411873628, -187500.02235174447, -187500.02235174447, -187500.02235174447, -187500.02235174447, -187500.02235174447, 0.052000000000000005, 0.012, 0.98, 192.0, 0.0, 0.0, 0.0, 0.0, 0.0, 0.0, 0.0, 0.0, 0.0, 1.708990783219767E9, 0.0, 2024-02-26 18:39:43.219
132.0, -187500.02235174447, -187500.02235174447, 184787.30288592612, -187500.02235174447, -187500.02235174447, -187500.02235174447, -187500.02235174447, -187500.02235174447, 0.052000000000000005, 0.012, 0.98, 192.0, 0.0, 0.0, 0.0, 0.0, 0.0, 0.0, 0.0, 0.0, 0.0, 1.708990783223771E9, 0.0, 2024-02-26 18:39:43.223
133.0, -187500.02235174447, -187500.02235174447, 184765.82285950458, -187500.02235174447, -187500.02235174447, -187500.02235174447, -187500.02235174447, -187500.02235174447, 0.052000000000000005, 0.012, 0.98, 192.0, 0.0, 0.0, 0.0, 0.0, 0.0, 0.0, 0.0, 0.0, 0.0, 1.708990783227763E9, 0.0, 2024-02-26 18:39:43.227
134.0, -187500.02235174447, -187500.02235174447, 184766.6051705605, -187500.02235174447, -187500.02235174447, -187500.02235174447, -187500.02235174447, -187500.02235174447, 0.052000000000000005, 0.012, 0.98, 192.0, 0.0, 0.0, 0.0, 0.0, 0.0, 0.0, 0.0, 0.0, 0.0, 1.708990783230799E9, 0.0, 2024-02-26 18:39:43.230
135.0, -187500.02235174447, -187500.02235174447, 184764.63821704846, -187500.02235174447, -187500.02235174447, -187500.02235174447, -187500.02235174447, -187500.02235174447, 0.052000000000000005, 0.012, 0.98, 192.0, 0.0, 0.0, 0.0, 0.0, 0.0, 0.0, 0.0, 0.0, 0.0, 1.708990783234836E9, 0.0, 2024-02-26 18:39:43.234
136.0, -187500.02235174447, -187500.02235174447, 184745.72864123926, -187500.02235174447, -187500.02235174447, -187500.02235174447, -187500.02235174447, -187500.02235174447, 0.05, 0.008, 0.98, 192.0, 1.0, 144.0, 0.0, 64.0, 30.0, 160.0, 0.0, 0.0, 0.0, 1.708990783238812E9, 0.0, 2024-02-26 18:39:43.238
137.0, -187500.02235174447, -187500.02235174447, 184720.2476525602, -187500.02235174447, -187500.02235174447, -187500.02235174447, -187500.02235174447, -187500.02235174447, 0.05, 0.008, 0.98, 192.0, 0.0, 0.0, 0.0, 0.0, 0.0, 0.0, 0.0, 0.0, 0.0, 1.708990783243816E9, 0.0, 2024-02-26 18:39:43.243
138.0, -187500.02235174447, -187500.02235174447, 184702.5003674627, -187500.02235174447, -187500.02235174447, -187500.02235174447, -187500.02235174447, -187500.02235174447, 0.05, 0.008, 0.98, 192.0, 0.0, 0.0, 0.0, 0.0, 0.0, 0.0, 0.0, 0.0, 0.0, 1.708990783247821E9, 0.0, 2024-02-26 18:39:43.247
139.0, -187500.02235174447, -187500.02235174447, 184699.81815812807, -187500.02235174447, -187500.02235174447, -187500.02235174447, -187500.02235174447, -187500.02235174447, 0.05, 0.008, 0.98, 192.0, 0.0, 0.0, 0.0, 0.0, 0.0, 0.0, 0.0, 0.0, 0.0, 1.708990783251818E9, 0.0, 2024-02-26 18:39:43.251
140.0, -187500.02235174447, -187500.02235174447, 184694.9007743479, -187500.02235174447, -187500.02235174447, -187500.02235174447, -187500.02235174447, -187500.02235174447, 0.05, 0.008, 0.98, 192.0, 0.0, 0.0, 0.0, 0.0, 0.0, 0.0, 0.0, 0.0, 0.0, 1.708990783255826E9, 0.0, 2024-02-26 18:39:43.255
141.0, -187500.02235174447, -187500.02235174447, 184679.90275381837, -187500.02235174447, -187500.02235174447, -187500.02235174447, -187500.02235174447, -187500.02235174447, 0.05, 0.008, 0.98, 192.0, 0.0, 0.0, 0.0, 0.0, 0.0, 0.0, 0.0, 0.0, 0.0, 1.708990783259822E9, 0.0, 2024-02-26 18:39:43.259
142.0, -187500.02235174447, -187500.02235174447, 184679.92510556284, -187500.02235174447, -187500.02235174447, -187500.02235174447, -187500.02235174447, -187500.02235174447, 0.05, 0.008, 0.98, 192.0, 0.0, 0.0, 0.0, 0.0, 0.0, 0.0, 0.0, 0.0, 0.0, 1.708990783262809E9, 0.0, 2024-02-26 18:39:43.262
143.0, -187500.02235174447, -187500.02235174447, 184680.08156777403, -187500.02235174447, -187500.02235174447, -187500.02235174447, -187500.02235174447, -187500.02235174447, 0.05, 0.008, 0.98, 192.0, 0.0, 0.0, 0.0, 0.0, 0.0, 0.0, 0.0, 0.0, 0.0, 1.708990783266823E9, 0.0, 2024-02-26 18:39:43.266
144.0, -187500.02235174447, -187500.02235174447, 184675.74532934968, -187500.02235174447, -187500.02235174447, -187500.02235174447, -187500.02235174447, -187500.02235174447, 0.05, 0.008, 0.98, 192.0, 0.0, 0.0, 0.0, 0.0, 0.0, 0.0, 0.0, 0.0, 0.0, 1.70899078327182E9, 0.0, 2024-02-26 18:39:43.271
145.0, -187500.02235174447, -187500.02235174447, 184656.72399481823, -187500.02235174447, -187500.02235174447, -187500.02235174447, -187500.02235174447, -187500.02235174447, 0.05, 0.008, 0.98, 192.0, 0.0, 0.0, 0.0, 0.0, 0.0, 0.0, 0.0, 0.0, 0.0, 1.708990783275819E9, 0.0, 2024-02-26 18:39:43.275
146.0, -187500.02235174447, -187500.02235174447, 184651.65014882686, -187500.02235174447, -187500.02235174447, -187500.02235174447, -187500.02235174447, -187500.02235174447, 0.046, 0.01, 0.978, 192.0, 1.0, 112.0, 0.0, 80.0, 30.0, 144.0, 0.0, 0.0, 0.0, 1.708990783279854E9, 0.0, 2024-02-26 18:39:43.279
147.0, -187500.02235174447, -187500.02235174447, 184647.8950557584, -187500.02235174447, -187500.02235174447, -187500.02235174447, -187500.02235174447, -187500.02235174447, 0.046, 0.01, 0.978, 192.0, 0.0, 0.0, 0.0, 0.0, 0.0, 0.0, 0.0, 0.0, 0.0, 1.708990783285861E9, 0.0, 2024-02-26 18:39:43.285
148.0, -187500.02235174447, -187500.02235174447, 184624.8727589694, -187500.02235174447, -187500.02235174447, -187500.02235174447, -187500.02235174447, -187500.02235174447, 0.046, 0.01, 0.978, 192.0, 0.0, 0.0, 0.0, 0.0, 0.0, 0.0, 0.0, 0.0, 0.0, 1.708990783288863E9, 0.0, 2024-02-26 18:39:43.288
149.0, -187500.02235174447, -187500.02235174447, 184586.83008990646, -187500.02235174447, -187500.02235174447, -187500.02235174447, -187500.02235174447, -187500.02235174447, 0.046, 0.01, 0.978, 192.0, 0.0, 0.0, 0.0, 0.0, 0.0, 0.0, 0.0, 0.0, 0.0, 1.708990783291889E9, 0.0, 2024-02-26 18:39:43.291
150.0, -187500.02235174447, -187500.02235174447, 184560.79030761606, -187500.02235174447, -187500.02235174447, -187500.02235174447, -187500.02235174447, -187500.02235174447, 0.046, 0.01, 0.978, 192.0, 0.0, 0.0, 0.0, 0.0, 0.0, 0.0, 0.0, 0.0, 0.0, 1.708990783294853E9, 0.0, 2024-02-26 18:39:43.294
151.0, -187500.02235174447, -187500.02235174447, 184548.6533103768, -187500.02235174447, -187500.02235174447, -187500.02235174447, -187500.02235174447, -187500.02235174447, 0.046, 0.01, 0.978, 192.0, 0.0, 0.0, 0.0, 0.0, 0.0, 0.0, 0.0, 0.0, 0.0, 1.708990783299856E9, 0.0, 2024-02-26 18:39:43.299
152.0, -187500.02235174447, -187500.02235174447, 184531.37541191286, -187500.02235174447, -187500.02235174447, -187500.02235174447, -187500.02235174447, -187500.02235174447, 0.046, 0.01, 0.978, 192.0, 0.0, 0.0, 0.0, 0.0, 0.0, 0.0, 0.0, 0.0, 0.0, 1.708990783303857E9, 0.0, 2024-02-26 18:39:43.303
153.0, -187500.02235174447, -187500.02235174447, 184504.08393193292, -187500.02235174447, -187500.02235174447, -187500.02235174447, -187500.02235174447, -187500.02235174447, 0.046, 0.01, 0.978, 192.0, 0.0, 0.0, 0.0, 0.0, 0.0, 0.0, 0.0, 0.0, 0.0, 1.708990783307851E9, 0.0, 2024-02-26 18:39:43.307
154.0, -187500.02235174447, -187500.02235174447, 184484.05676890098, -187500.02235174447, -187500.02235174447, -187500.02235174447, -187500.02235174447, -187500.02235174447, 0.046, 0.01, 0.978, 192.0, 0.0, 0.0, 0.0, 0.0, 0.0, 0.0, 0.0, 0.0, 0.0, 1.708990783311856E9, 0.0, 2024-02-26 18:39:43.311
155.0, -187500.02235174447, -187500.02235174447, 184473.1938210957, -187500.02235174447, -187500.02235174447, -187500.02235174447, -187500.02235174447, -187500.02235174447, 0.046, 0.01, 0.978, 192.0, 0.0, 0.0, 0.0, 0.0, 0.0, 0.0, 0.0, 0.0, 0.0, 1.708990783315851E9, 0.0, 2024-02-26 18:39:43.315
156.0, -187500.02235174447, -187500.02235174447, 184460.85565815636, -187500.02235174447, -187500.02235174447, -187500.02235174447, -187500.02235174447, -187500.02235174447, 0.05, 0.012, 0.98, 192.0, 1.0, 144.0, 0.0, 96.0, 30.0, 160.0, 0.0, 0.0, 0.0, 1.708990783318851E9, 0.0, 2024-02-26 18:39:43.318
157.0, -187500.02235174447, -187500.02235174447, 184453.21136155265, -187500.02235174447, -187500.02235174447, -187500.02235174447, -187500.02235174447, -187500.02235174447, 0.05, 0.012, 0.98, 192.0, 0.0, 0.0, 0.0, 0.0, 0.0, 0.0, 0.0, 0.0, 0.0, 1.708990783322907E9, 0.0, 2024-02-26 18:39:43.322
158.0, -187500.02235174447, -187500.02235174447, 184459.35809127786, -187500.02235174447, -187500.02235174447, -187500.02235174447, -187500.02235174447, -187500.02235174447, 0.05, 0.012, 0.98, 192.0, 0.0, 0.0, 0.0, 0.0, 0.0, 0.0, 0.0, 0.0, 0.0, 1.708990783327904E9, 0.0, 2024-02-26 18:39:43.327
159.0, -187500.02235174447, -187500.02235174447, 184480.81576595496, -187500.02235174447, -187500.02235174447, -187500.02235174447, -187500.02235174447, -187500.02235174447, 0.05, 0.012, 0.98, 192.0, 0.0, 0.0, 0.0, 0.0, 0.0, 0.0, 0.0, 0.0, 0.0, 1.708990783331898E9, 0.0, 2024-02-26 18:39:43.331
160.0, -187500.02235174447, -187500.02235174447, 184496.7525597516, -187500.02235174447, -187500.02235174447, -187500.02235174447, -187500.02235174447, -187500.02235174447, 0.05, 0.012, 0.98, 192.0, 0.0, 0.0, 0.0, 0.0, 0.0, 0.0, 0.0, 0.0, 0.0, 1.708990783335947E9, 0.0, 2024-02-26 18:39:43.335
161.0, -187500.02235174447, -187500.02235174447, 184498.7418650081, -187500.02235174447, -187500.02235174447, -187500.02235174447, -187500.02235174447, -187500.02235174447, 0.05, 0.012, 0.98, 192.0, 0.0, 0.0, 0.0, 0.0, 0.0, 0.0, 0.0, 0.0, 0.0, 1.708990783339942E9, 0.0, 2024-02-26 18:39:43.339
162.0, -187500.02235174447, -187500.02235174447, 184494.9420684507, -187500.02235174447, -187500.02235174447, -187500.02235174447, -187500.02235174447, -187500.02235174447, 0.05, 0.012, 0.98, 192.0, 0.0, 0.0, 0.0, 0.0, 0.0, 0.0, 0.0, 0.0, 0.0, 1.708990783342906E9, 0.0, 2024-02-26 18:39:43.342
163.0, -187500.02235174447, -187500.02235174447, 184499.52417606403, -187500.02235174447, -187500.02235174447, -187500.02235174447, -187500.02235174447, -187500.02235174447, 0.05, 0.012, 0.98, 192.0, 0.0, 0.0, 0.0, 0.0, 0.0, 0.0, 0.0, 0.0, 0.0, 1.708990783346896E9, 0.0, 2024-02-26 18:39:43.346
164.0, -187500.02235174447, -187500.02235174447, 184498.1383679078, -187500.02235174447, -187500.02235174447, -187500.02235174447, -187500.02235174447, -187500.02235174447, 0.05, 0.012, 0.98, 192.0, 0.0, 0.0, 0.0, 0.0, 0.0, 0.0, 0.0, 0.0, 0.0, 1.708990783350903E9, 0.0, 2024-02-26 18:39:43.350
165.0, -187500.02235174447, -187500.02235174447, 184488.77298698106, -187500.02235174447, -187500.02235174447, -187500.02235174447, -187500.02235174447, -187500.02235174447, 0.05, 0.012, 0.98, 192.0, 0.0, 0.0, 0.0, 0.0, 0.0, 0.0, 0.0, 0.0, 0.0, 1.708990783355917E9, 0.0, 2024-02-26 18:39:43.355
166.0, -187500.02235174447, -187500.02235174447, 184472.63502748433, -187500.02235174447, -187500.02235174447, -187500.02235174447, -187500.02235174447, -187500.02235174447, 0.056, 0.01, 0.984, 192.0, 1.0, 192.0, 0.0, 80.0, 30.0, 192.0, 0.0, 0.0, 0.0, 1.708990783359898E9, 0.0, 2024-02-26 18:39:43.359
167.0, -187500.02235174447, -187500.02235174447, 184471.11510886136, -187500.02235174447, -187500.02235174447, -187500.02235174447, -187500.02235174447, -187500.02235174447, 0.056, 0.01, 0.984, 192.0, 0.0, 0.0, 0.0, 0.0, 0.0, 0.0, 0.0, 0.0, 0.0, 1.708990783363926E9, 0.0, 2024-02-26 18:39:43.363
168.0, -187500.02235174447, -187500.02235174447, 184474.13259436283, -187500.02235174447, -187500.02235174447, -187500.02235174447, -187500.02235174447, -187500.02235174447, 0.056, 0.01, 0.984, 192.0, 0.0, 0.0, 0.0, 0.0, 0.0, 0.0, 0.0, 0.0, 0.0, 1.708990783366936E9, 0.0, 2024-02-26 18:39:43.366
169.0, -187500.02235174447, -187500.02235174447, 184461.36974827884, -187500.02235174447, -187500.02235174447, -187500.02235174447, -187500.02235174447, -187500.02235174447, 0.056, 0.01, 0.984, 192.0, 0.0, 0.0, 0.0, 0.0, 0.0, 0.0, 0.0, 0.0, 0.0, 1.708990783370955E9, 0.0, 2024-02-26 18:39:43.370
170.0, -187500.02235174447, -187500.02235174447, 184436.1793322777, -187500.02235174447, -187500.02235174447, -187500.02235174447, -187500.02235174447, -187500.02235174447, 0.056, 0.01, 0.984, 192.0, 0.0, 0.0, 0.0, 0.0, 0.0, 0.0, 0.0, 0.0, 0.0, 1.708990783374952E9, 0.0, 2024-02-26 18:39:43.374
171.0, -187500.02235174447, -187500.02235174447, 184424.2211489941, -187500.02235174447, -187500.02235174447, -187500.02235174447, -187500.02235174447, -187500.02235174447, 0.056, 0.01, 0.984, 192.0, 0.0, 0.0, 0.0, 0.0, 0.0, 0.0, 0.0, 0.0, 0.0, 1.708990783378946E9, 0.0, 2024-02-26 18:39:43.378
172.0, -187500.02235174447, -187500.02235174447, 184421.89656757077, -187500.02235174447, -187500.02235174447, -187500.02235174447, -187500.02235174447, -187500.02235174447, 0.056, 0.01, 0.984, 192.0, 0.0, 0.0, 0.0, 0.0, 0.0, 0.0, 0.0, 0.0, 0.0, 1.708990783382946E9, 0.0, 2024-02-26 18:39:43.382
173.0, -187500.02235174447, -187500.02235174447, 184408.91020404224, -187500.02235174447, -187500.02235174447, -187500.02235174447, -187500.02235174447, -187500.02235174447, 0.056, 0.01, 0.984, 192.0, 0.0, 0.0, 0.0, 0.0, 0.0, 0.0, 0.0, 0.0, 0.0, 1.708990783387964E9, 0.0, 2024-02-26 18:39:43.387
174.0, -187500.02235174447, -187500.02235174447, 184383.63038106327, -187500.02235174447, -187500.02235174447, -187500.02235174447, -187500.02235174447, -187500.02235174447, 0.056, 0.01, 0.984, 192.0, 0.0, 0.0, 0.0, 0.0, 0.0, 0.0, 0.0, 0.0, 0.0, 1.708990783391959E9, 0.0, 2024-02-26 18:39:43.391
175.0, -187500.02235174447, -187500.02235174447, 184368.0735669224, -187500.02235174447, -187500.02235174447, -187500.02235174447, -187500.02235174447, -187500.02235174447, 0.056, 0.01, 0.984, 192.0, 0.0, 0.0, 0.0, 0.0, 0.0, 0.0, 0.0, 0.0, 0.0, 1.708990783394998E9, 0.0, 2024-02-26 18:39:43.394
176.0, -187500.02235174447, -187500.02235174447, 184366.6654070217, -187500.02235174447, -187500.02235174447, -187500.02235174447, -187500.02235174447, -187500.02235174447, 0.052000000000000005, 0.008, 0.976, 192.0, 1.0, 160.0, 0.0, 64.0, 30.0, 128.0, 0.0, 0.0, 0.0, 1.70899078339899E9, 0.0, 2024-02-26 18:39:43.398
177.0, -187500.02235174447, -187500.02235174447, 184359.37873832928, -187500.02235174447, -187500.02235174447, -187500.02235174447, -187500.02235174447, -187500.02235174447, 0.052000000000000005, 0.008, 0.976, 192.0, 0.0, 0.0, 0.0, 0.0, 0.0, 0.0, 0.0, 0.0, 0.0, 1.708990783402985E9, 0.0, 2024-02-26 18:39:43.402
178.0, -187500.02235174447, -187500.02235174447, 184337.3622700408, -187500.02235174447, -187500.02235174447, -187500.02235174447, -187500.02235174447, -187500.02235174447, 0.052000000000000005, 0.008, 0.976, 192.0, 0.0, 0.0, 0.0, 0.0, 0.0, 0.0, 0.0, 0.0, 0.0, 1.708990783406984E9, 0.0, 2024-02-26 18:39:43.406
179.0, -187500.02235174447, -187500.02235174447, 184317.84919713132, -187500.02235174447, -187500.02235174447, -187500.02235174447, -187500.02235174447, -187500.02235174447, 0.052000000000000005, 0.008, 0.976, 192.0, 0.0, 0.0, 0.0, 0.0, 0.0, 0.0, 0.0, 0.0, 0.0, 1.708990783411983E9, 0.0, 2024-02-26 18:39:43.411
180.0, -187500.02235174447, -187500.02235174447, 184310.67428716115, -187500.02235174447, -187500.02235174447, -187500.02235174447, -187500.02235174447, -187500.02235174447, 0.052000000000000005, 0.008, 0.976, 192.0, 0.0, 0.0, 0.0, 0.0, 0.0, 0.0, 0.0, 0.0, 0.0, 1.708990783415989E9, 0.0, 2024-02-26 18:39:43.415
181.0, -187500.02235174447, -187500.02235174447, 184308.3050022489, -187500.02235174447, -187500.02235174447, -187500.02235174447, -187500.02235174447, -187500.02235174447, 0.052000000000000005, 0.008, 0.976, 192.0, 0.0, 0.0, 0.0, 0.0, 0.0, 0.0, 0.0, 0.0, 0.0, 1.708990783419987E9, 0.0, 2024-02-26 18:39:43.419
182.0, -187500.02235174447, -187500.02235174447, 184295.47510093154, -187500.02235174447, -187500.02235174447, -187500.02235174447, -187500.02235174447, -187500.02235174447, 0.052000000000000005, 0.008, 0.976, 192.0, 0.0, 0.0, 0.0, 0.0, 0.0, 0.0, 0.0, 0.0, 0.0, 1.708990783422984E9, 0.0, 2024-02-26 18:39:43.422
183.0, -187500.02235174447, -187500.02235174447, 184283.76278683697, -187500.02235174447, -187500.02235174447, -187500.02235174447, -187500.02235174447, -187500.02235174447, 0.052000000000000005, 0.008, 0.976, 192.0, 0.0, 0.0, 0.0, 0.0, 0.0, 0.0, 0.0, 0.0, 0.0, 1.708990783426982E9, 0.0, 2024-02-26 18:39:43.426
184.0, -187500.02235174447, -187500.02235174447, 184294.17869975313, -187500.02235174447, -187500.02235174447, -187500.02235174447, -187500.02235174447, -187500.02235174447, 0.052000000000000005, 0.008, 0.976, 192.0, 0.0, 0.0, 0.0, 0.0, 0.0, 0.0, 0.0, 0.0, 0.0, 1.70899078343107E9, 0.0, 2024-02-26 18:39:43.431
185.0, -187500.02235174447, -187500.02235174447, 184299.6995806336, -187500.02235174447, -187500.02235174447, -187500.02235174447, -187500.02235174447, -187500.02235174447, 0.048, 0.01, 0.98, 192.0, 1.0, 128.0, 0.0, 80.0, 30.0, 160.0, 0.0, 0.0, 0.0, 1.708990783435097E9, 0.0, 2024-02-26 18:39:43.435
186.0, -187500.02235174447, -187500.02235174447, 184300.2136707561, -187500.02235174447, -187500.02235174447, -187500.02235174447, -187500.02235174447, -187500.02235174447, 0.048, 0.01, 0.98, 192.0, 0.0, 0.0, 0.0, 0.0, 0.0, 0.0, 0.0, 0.0, 0.0, 1.708990783439101E9, 0.0, 2024-02-26 18:39:43.439
187.0, -187500.02235174447, -187500.02235174447, 184300.41483645618, -187500.02235174447, -187500.02235174447, -187500.02235174447, -187500.02235174447, -187500.02235174447, 0.048, 0.01, 0.98, 192.0, 0.0, 0.0, 0.0, 0.0, 0.0, 0.0, 0.0, 0.0, 0.0, 1.708990783444087E9, 0.0, 2024-02-26 18:39:43.444
188.0, -187500.02235174447, -187500.02235174447, 184317.93860410913, -187500.02235174447, -187500.02235174447, -187500.02235174447, -187500.02235174447, -187500.02235174447, 0.048, 0.01, 0.98, 192.0, 0.0, 0.0, 0.0, 0.0, 0.0, 0.0, 0.0, 0.0, 0.0, 1.708990783448089E9, 0.0, 2024-02-26 18:39:43.448
189.0, -187500.02235174447, -187500.02235174447, 184337.96576714108, -187500.02235174447, -187500.02235174447, -187500.02235174447, -187500.02235174447, -187500.02235174447, 0.048, 0.01, 0.98, 192.0, 0.0, 0.0, 0.0, 0.0, 0.0, 0.0, 0.0, 0.0, 0.0, 1.70899078345109E9, 0.0, 2024-02-26 18:39:43.451
190.0, -187500.02235174447, -187500.02235174447, 184344.24660733304, -187500.02235174447, -187500.02235174447, -187500.02235174447, -187500.02235174447, -187500.02235174447, 0.048, 0.01, 0.98, 192.0, 0.0, 0.0, 0.0, 0.0, 0.0, 0.0, 0.0, 0.0, 0.0, 1.70899078345509E9, 0.0, 2024-02-26 18:39:43.455
191.0, -187500.02235174447, -187500.02235174447, 184342.19024684315, -187500.02235174447, -187500.02235174447, -187500.02235174447, -187500.02235174447, -187500.02235174447, 0.048, 0.01, 0.98, 192.0, 0.0, 0.0, 0.0, 0.0, 0.0, 0.0, 0.0, 0.0, 0.0, 1.708990783459088E9, 0.0, 2024-02-26 18:39:43.459
192.0, -187500.02235174447, -187500.02235174447, 184353.34376732635, -187500.02235174447, -187500.02235174447, -187500.02235174447, -187500.02235174447, -187500.02235174447, 0.048, 0.01, 0.98, 192.0, 0.0, 0.0, 0.0, 0.0, 0.0, 0.0, 0.0, 0.0, 0.0, 1.708990783463174E9, 0.0, 2024-02-26 18:39:43.463
193.0, -187500.02235174447, -187500.02235174447, 184370.4652035791, -187500.02235174447, -187500.02235174447, -187500.02235174447, -187500.02235174447, -187500.02235174447, 0.048, 0.01, 0.98, 192.0, 0.0, 0.0, 0.0, 0.0, 0.0, 0.0, 0.0, 0.0, 0.0, 1.70899078346711E9, 0.0, 2024-02-26 18:39:43.467
194.0, -187500.02235174447, -187500.02235174447, 184378.60123856083, -187500.02235174447, -187500.02235174447, -187500.02235174447, -187500.02235174447, -187500.02235174447, 0.048, 0.01, 0.98, 192.0, 0.0, 0.0, 0.0, 0.0, 0.0, 0.0, 0.0, 0.0, 0.0, 1.708990783471105E9, 0.0, 2024-02-26 18:39:43.471
195.0, -187500.02235174447, -187500.02235174447, 184375.4272908482, -187500.02235174447, -187500.02235174447, -187500.02235174447, -187500.02235174447, -187500.02235174447, 0.05, 0.012, 0.982, 192.0, 1.0, 144.0, 0.0, 96.0, 30.0, 176.0, 0.0, 0.0, 0.0, 1.708990783476103E9, 0.0, 2024-02-26 18:39:43.476
196.0, -187500.02235174447, -187500.02235174447, 184385.64203806425, -187500.02235174447, -187500.02235174447, -187500.02235174447, -187500.02235174447, -187500.02235174447, 0.05, 0.012, 0.982, 192.0, 0.0, 0.0, 0.0, 0.0, 0.0, 0.0, 0.0, 0.0, 0.0, 1.708990783479089E9, 0.0, 2024-02-26 18:39:43.479
197.0, -187500.02235174447, -187500.02235174447, 184402.78582606147, -187500.02235174447, -187500.02235174447, -187500.02235174447, -187500.02235174447, -187500.02235174447, 0.05, 0.012, 0.982, 192.0, 0.0, 0.0, 0.0, 0.0, 0.0, 0.0, 0.0, 0.0, 0.0, 1.708990783483111E9, 0.0, 2024-02-26 18:39:43.483
198.0, -187500.02235174447, -187500.02235174447, 184407.63615460828, -187500.02235174447, -187500.02235174447, -187500.02235174447, -187500.02235174447, -187500.02235174447, 0.05, 0.012, 0.982, 192.0, 0.0, 0.0, 0.0, 0.0, 0.0, 0.0, 0.0, 0.0, 0.0, 1.708990783487092E9, 0.0, 2024-02-26 18:39:43.487
199.0, -187500.02235174447, -187500.02235174447, 184400.70711382714, -187500.02235174447, -187500.02235174447, -187500.02235174447, -187500.02235174447, -187500.02235174447, 0.05, 0.012, 0.982, 192.0, 0.0, 0.0, 0.0, 0.0, 0.0, 0.0, 0.0, 0.0, 0.0, 1.708990783491102E9, 0.0, 2024-02-26 18:39:43.491
200.0, -187500.02235174447, -187500.02235174447, 184405.4233319072, -187500.02235174447, -187500.02235174447, -187500.02235174447, -187500.02235174447, -187500.02235174447, 0.05, 0.012, 0.982, 192.0, 0.0, 0.0, 0.0, 0.0, 0.0, 0.0, 0.0, 0.0, 0.0, 1.708990783495098E9, 0.0, 2024-02-26 18:39:43.495
201.0, -187500.02235174447, -187500.02235174447, 184419.95196580316, -187500.02235174447, -187500.02235174447, -187500.02235174447, -187500.02235174447, -187500.02235174447, 0.05, 0.012, 0.982, 192.0, 0.0, 0.0, 0.0, 0.0, 0.0, 0.0, 0.0, 0.0, 0.0, 1.708990783500101E9, 0.0, 2024-02-26 18:39:43.500
202.0, -187500.02235174447, -187500.02235174447, 184425.65166063927, -187500.02235174447, -187500.02235174447, -187500.02235174447, -187500.02235174447, -187500.02235174447, 0.05, 0.012, 0.982, 192.0, 0.0, 0.0, 0.0, 0.0, 0.0, 0.0, 0.0, 0.0, 0.0, 1.708990783503103E9, 0.0, 2024-02-26 18:39:43.503
203.0, -187500.02235174447, -187500.02235174447, 184414.7663610895, -187500.02235174447, -187500.02235174447, -187500.02235174447, -187500.02235174447, -187500.02235174447, 0.05, 0.012, 0.982, 192.0, 0.0, 0.0, 0.0, 0.0, 0.0, 0.0, 0.0, 0.0, 0.0, 1.708990783506086E9, 0.0, 2024-02-26 18:39:43.506
204.0, -187500.02235174447, -187500.02235174447, 184405.31157318494, -187500.02235174447, -187500.02235174447, -187500.02235174447, -187500.02235174447, -187500.02235174447, 0.05, 0.012, 0.982, 192.0, 0.0, 0.0, 0.0, 0.0, 0.0, 0.0, 0.0, 0.0, 0.0, 1.708990783511107E9, 0.0, 2024-02-26 18:39:43.511
205.0, -187500.02235174447, -187500.02235174447, 184409.3795906758, -187500.02235174447, -187500.02235174447, -187500.02235174447, -187500.02235174447, -187500.02235174447, 0.052000000000000005, 0.012, 0.98, 192.0, 1.0, 160.0, 0.0, 96.0, 30.0, 160.0, 0.0, 0.0, 0.0, 1.708990783515089E9, 0.0, 2024-02-26 18:39:43.515
206.0, -187500.02235174447, -187500.02235174447, 184409.69251509817, -187500.02235174447, -187500.02235174447, -187500.02235174447, -187500.02235174447, -187500.02235174447, 0.052000000000000005, 0.012, 0.98, 192.0, 0.0, 0.0, 0.0, 0.0, 0.0, 0.0, 0.0, 0.0, 0.0, 1.708990783519104E9, 0.0, 2024-02-26 18:39:43.519
207.0, -187500.02235174447, -187500.02235174447, 184398.36018065934, -187500.02235174447, -187500.02235174447, -187500.02235174447, -187500.02235174447, -187500.02235174447, 0.052000000000000005, 0.012, 0.98, 192.0, 0.0, 0.0, 0.0, 0.0, 0.0, 0.0, 0.0, 0.0, 0.0, 1.70899078352313E9, 0.0, 2024-02-26 18:39:43.523
208.0, -187500.02235174447, -187500.02235174447, 184387.74310204305, -187500.02235174447, -187500.02235174447, -187500.02235174447, -187500.02235174447, -187500.02235174447, 0.052000000000000005, 0.012, 0.98, 192.0, 0.0, 0.0, 0.0, 0.0, 0.0, 0.0, 0.0, 0.0, 0.0, 1.708990783528115E9, 0.0, 2024-02-26 18:39:43.528
209.0, -187500.02235174447, -187500.02235174447, 184393.37574164578, -187500.02235174447, -187500.02235174447, -187500.02235174447, -187500.02235174447, -187500.02235174447, 0.052000000000000005, 0.012, 0.98, 192.0, 0.0, 0.0, 0.0, 0.0, 0.0, 0.0, 0.0, 0.0, 0.0, 1.708990783531121E9, 0.0, 2024-02-26 18:39:43.531
210.0, -187500.02235174447, -187500.02235174447, 184396.32617191388, -187500.02235174447, -187500.02235174447, -187500.02235174447, -187500.02235174447, -187500.02235174447, 0.052000000000000005, 0.012, 0.98, 192.0, 0.0, 0.0, 0.0, 0.0, 0.0, 0.0, 0.0, 0.0, 0.0, 1.708990783534128E9, 0.0, 2024-02-26 18:39:43.534
211.0, -187500.02235174447, -187500.02235174447, 184389.84416602185, -187500.02235174447, -187500.02235174447, -187500.02235174447, -187500.02235174447, -187500.02235174447, 0.052000000000000005, 0.012, 0.98, 192.0, 0.0, 0.0, 0.0, 0.0, 0.0, 0.0, 0.0, 0.0, 0.0, 1.70899078353911E9, 0.0, 2024-02-26 18:39:43.539
212.0, -187500.02235174447, -187500.02235174447, 184377.05896819342, -187500.02235174447, -187500.02235174447, -187500.02235174447, -187500.02235174447, -187500.02235174447, 0.052000000000000005, 0.012, 0.98, 192.0, 0.0, 0.0, 0.0, 0.0, 0.0, 0.0, 0.0, 0.0, 0.0, 1.708990783543154E9, 0.0, 2024-02-26 18:39:43.543
213.0, -187500.02235174447, -187500.02235174447, 184378.0647966939, -187500.02235174447, -187500.02235174447, -187500.02235174447, -187500.02235174447, -187500.02235174447, 0.052000000000000005, 0.012, 0.98, 192.0, 0.0, 0.0, 0.0, 0.0, 0.0, 0.0, 0.0, 0.0, 0.0, 1.708990783547153E9, 0.0, 2024-02-26 18:39:43.547
214.0, -187500.02235174447, -187500.02235174447, 184380.79170951745, -187500.02235174447, -187500.02235174447, -187500.02235174447, -187500.02235174447, -187500.02235174447, 0.052000000000000005, 0.012, 0.98, 192.0, 0.0, 0.0, 0.0, 0.0, 0.0, 0.0, 0.0, 0.0, 0.0, 1.708990783551184E9, 0.0, 2024-02-26 18:39:43.551
215.0, -187500.02235174447, -187500.02235174447, 184372.05217743543, -187500.02235174447, -187500.02235174447, -187500.02235174447, -187500.02235174447, -187500.02235174447, 0.052000000000000005, 0.016, 0.982, 192.0, 1.0, 160.0, 0.0, 128.0, 30.0, 176.0, 0.0, 0.0, 0.0, 1.708990783555154E9, 0.0, 2024-02-26 18:39:43.555
216.0, -187500.02235174447, -187500.02235174447, 184355.69070049416, -187500.02235174447, -187500.02235174447, -187500.02235174447, -187500.02235174447, -187500.02235174447, 0.052000000000000005, 0.016, 0.982, 192.0, 0.0, 0.0, 0.0, 0.0, 0.0, 0.0, 0.0, 0.0, 0.0, 1.708990783559169E9, 0.0, 2024-02-26 18:39:43.559
217.0, -187500.02235174447, -187500.02235174447, 184352.7626219705, -187500.02235174447, -187500.02235174447, -187500.02235174447, -187500.02235174447, -187500.02235174447, 0.052000000000000005, 0.016, 0.982, 192.0, 0.0, 0.0, 0.0, 0.0, 0.0, 0.0, 0.0, 0.0, 0.0, 1.708990783562165E9, 0.0, 2024-02-26 18:39:43.562
218.0, -187500.02235174447, -187500.02235174447, 184355.19896211612, -187500.02235174447, -187500.02235174447, -187500.02235174447, -187500.02235174447, -187500.02235174447, 0.052000000000000005, 0.016, 0.982, 192.0, 0.0, 0.0, 0.0, 0.0, 0.0, 0.0, 0.0, 0.0, 0.0, 1.708990783567166E9, 0.0, 2024-02-26 18:39:43.567
219.0, -187500.02235174447, -187500.02235174447, 184351.3544620698, -187500.02235174447, -187500.02235174447, -187500.02235174447, -187500.02235174447, -187500.02235174447, 0.052000000000000005, 0.016, 0.982, 192.0, 0.0, 0.0, 0.0, 0.0, 0.0, 0.0, 0.0, 0.0, 0.0, 1.708990783571173E9, 0.0, 2024-02-26 18:39:43.571
220.0, -187500.02235174447, -187500.02235174447, 184337.76460144098, -187500.02235174447, -187500.02235174447, -187500.02235174447, -187500.02235174447, -187500.02235174447, 0.052000000000000005, 0.016, 0.982, 192.0, 0.0, 0.0, 0.0, 0.0, 0.0, 0.0, 0.0, 0.0, 0.0, 1.708990783575174E9, 0.0, 2024-02-26 18:39:43.575
221.0, -187500.02235174447, -187500.02235174447, 184335.261206062, -187500.02235174447, -187500.02235174447, -187500.02235174447, -187500.02235174447, -187500.02235174447, 0.052000000000000005, 0.016, 0.982, 192.0, 0.0, 0.0, 0.0, 0.0, 0.0, 0.0, 0.0, 0.0, 0.0, 1.708990783579169E9, 0.0, 2024-02-26 18:39:43.579
222.0, -187500.02235174447, -187500.02235174447, 184337.98811888555, -187500.02235174447, -187500.02235174447, -187500.02235174447, -187500.02235174447, -187500.02235174447, 0.052000000000000005, 0.016, 0.982, 192.0, 0.0, 0.0, 0.0, 0.0, 0.0, 0.0, 0.0, 0.0, 0.0, 1.708990783583154E9, 0.0, 2024-02-26 18:39:43.583
223.0, -187500.02235174447, -187500.02235174447, 184330.8579124043, -187500.02235174447, -187500.02235174447, -187500.02235174447, -187500.02235174447, -187500.02235174447, 0.052000000000000005, 0.016, 0.982, 192.0, 0.0, 0.0, 0.0, 0.0, 0.0, 0.0, 0.0, 0.0, 0.0, 1.708990783587156E9, 0.0, 2024-02-26 18:39:43.587
224.0, -187500.02235174447, -187500.02235174447, 184323.92887162315, -187500.02235174447, -187500.02235174447, -187500.02235174447, -187500.02235174447, -187500.02235174447, 0.052000000000000005, 0.016, 0.982, 192.0, 0.0, 0.0, 0.0, 0.0, 0.0, 0.0, 0.0, 0.0, 0.0, 1.708990783590323E9, 0.0, 2024-02-26 18:39:43.590
225.0, -187500.02235174447, -187500.02235174447, 184318.92208086516, -187500.02235174447, -187500.02235174447, -187500.02235174447, -187500.02235174447, -187500.02235174447, 0.052000000000000005, 0.012, 0.982, 192.0, 1.0, 160.0, 0.0, 96.0, 30.0, 176.0, 0.0, 0.0, 0.0, 1.708990783595194E9, 0.0, 2024-02-26 18:39:43.595
226.0, -187500.02235174447, -187500.02235174447, 184323.57124371186, -187500.02235174447, -187500.02235174447, -187500.02235174447, -187500.02235174447, -187500.02235174447, 0.052000000000000005, 0.012, 0.982, 192.0, 0.0, 0.0, 0.0, 0.0, 0.0, 0.0, 0.0, 0.0, 0.0, 1.708990783599167E9, 0.0, 2024-02-26 18:39:43.599
227.0, -187500.02235174447, -187500.02235174447, 184325.76171466848, -187500.02235174447, -187500.02235174447, -187500.02235174447, -187500.02235174447, -187500.02235174447, 0.052000000000000005, 0.012, 0.982, 192.0, 0.0, 0.0, 0.0, 0.0, 0.0, 0.0, 0.0, 0.0, 0.0, 1.708990783603217E9, 0.0, 2024-02-26 18:39:43.603
228.0, -187500.02235174447, -187500.02235174447, 184314.87641511875, -187500.02235174447, -187500.02235174447, -187500.02235174447, -187500.02235174447, -187500.02235174447, 0.052000000000000005, 0.012, 0.982, 192.0, 0.0, 0.0, 0.0, 0.0, 0.0, 0.0, 0.0, 0.0, 0.0, 1.708990783607305E9, 0.0, 2024-02-26 18:39:43.607
229.0, -187500.02235174447, -187500.02235174447, 184304.3040399914, -187500.02235174447, -187500.02235174447, -187500.02235174447, -187500.02235174447, -187500.02235174447, 0.052000000000000005, 0.012, 0.982, 192.0, 0.0, 0.0, 0.0, 0.0, 0.0, 0.0, 0.0, 0.0, 0.0, 1.708990783611209E9, 0.0, 2024-02-26 18:39:43.611
230.0, -187500.02235174447, -187500.02235174447, 184307.23211851504, -187500.02235174447, -187500.02235174447, -187500.02235174447, -187500.02235174447, -187500.02235174447, 0.052000000000000005, 0.012, 0.982, 192.0, 0.0, 0.0, 0.0, 0.0, 0.0, 0.0, 0.0, 0.0, 0.0, 1.70899078361521E9, 0.0, 2024-02-26 18:39:43.615
231.0, -187500.02235174447, -187500.02235174447, 184305.89101384772, -187500.02235174447, -187500.02235174447, -187500.02235174447, -187500.02235174447, -187500.02235174447, 0.052000000000000005, 0.012, 0.982, 192.0, 0.0, 0.0, 0.0, 0.0, 0.0, 0.0, 0.0, 0.0, 0.0, 1.708990783618187E9, 0.0, 2024-02-26 18:39:43.618
232.0, -187500.02235174447, -187500.02235174447, 184290.3565514513, -187500.02235174447, -187500.02235174447, -187500.02235174447, -187500.02235174447, -187500.02235174447, 0.052000000000000005, 0.012, 0.982, 192.0, 0.0, 0.0, 0.0, 0.0, 0.0, 0.0, 0.0, 0.0, 0.0, 1.708990783623232E9, 0.0, 2024-02-26 18:39:43.623
233.0, -187500.02235174447, -187500.02235174447, 184270.37409190825, -187500.02235174447, -187500.02235174447, -187500.02235174447, -187500.02235174447, -187500.02235174447, 0.052000000000000005, 0.012, 0.982, 192.0, 0.0, 0.0, 0.0, 0.0, 0.0, 0.0, 0.0, 0.0, 0.0, 1.708990783627221E9, 0.0, 2024-02-26 18:39:43.627
234.0, -187500.02235174447, -187500.02235174447, 184264.71910056105, -187500.02235174447, -187500.02235174447, -187500.02235174447, -187500.02235174447, -187500.02235174447, 0.052000000000000005, 0.012, 0.982, 192.0, 0.0, 0.0, 0.0, 0.0, 0.0, 0.0, 0.0, 0.0, 0.0, 1.708990783631218E9, 0.0, 2024-02-26 18:39:43.631
235.0, -187500.02235174447, -187500.02235174447, 184253.07384169984, -187500.02235174447, -187500.02235174447, -187500.02235174447, -187500.02235174447, -187500.02235174447, 0.054, 0.008, 0.984, 192.0, 1.0, 176.0, 0.0, 64.0, 30.0, 192.0, 0.0, 0.0, 0.0, 1.708990783635218E9, 0.0, 2024-02-26 18:39:43.635
236.0, -187500.02235174447, -187500.02235174447, 184228.86690245473, -187500.02235174447, -187500.02235174447, -187500.02235174447, -187500.02235174447, -187500.02235174447, 0.054, 0.008, 0.984, 192.0, 0.0, 0.0, 0.0, 0.0, 0.0, 0.0, 0.0, 0.0, 0.0, 1.708990783638252E9, 0.0, 2024-02-26 18:39:43.638
237.0, -187500.02235174447, -187500.02235174447, 184201.3742567747, -187500.02235174447, -187500.02235174447, -187500.02235174447, -187500.02235174447, -187500.02235174447, 0.054, 0.008, 0.984, 192.0, 0.0, 0.0, 0.0, 0.0, 0.0, 0.0, 0.0, 0.0, 0.0, 1.708990783642231E9, 0.0, 2024-02-26 18:39:43.642
238.0, -187500.02235174447, -187500.02235174447, 184193.01470434843, -187500.02235174447, -187500.02235174447, -187500.02235174447, -187500.02235174447, -187500.02235174447, 0.054, 0.008, 0.984, 192.0, 0.0, 0.0, 0.0, 0.0, 0.0, 0.0, 0.0, 0.0, 0.0, 1.708990783646233E9, 0.0, 2024-02-26 18:39:43.646
239.0, -187500.02235174447, -187500.02235174447, 184195.49574798296, -187500.02235174447, -187500.02235174447, -187500.02235174447, -187500.02235174447, -187500.02235174447, 0.054, 0.008, 0.984, 192.0, 0.0, 0.0, 0.0, 0.0, 0.0, 0.0, 0.0, 0.0, 0.0, 1.708990783650916E9, 0.0, 2024-02-26 18:39:43.650
240.0, -187500.02235174447, -187500.02235174447, 184200.63664920768, -187500.02235174447, -187500.02235174447, -187500.02235174447, -187500.02235174447, -187500.02235174447, 0.054, 0.008, 0.984, 192.0, 0.0, 0.0, 0.0, 0.0, 0.0, 0.0, 0.0, 0.0, 0.0, 1.708990783655258E9, 0.0, 2024-02-26 18:39:43.655
241.0, -187500.02235174447, -187500.02235174447, 184203.81059692035, -187500.02235174447, -187500.02235174447, -187500.02235174447, -187500.02235174447, -187500.02235174447, 0.054, 0.008, 0.984, 192.0, 0.0, 0.0, 0.0, 0.0, 0.0, 0.0, 0.0, 0.0, 0.0, 1.708990783659253E9, 0.0, 2024-02-26 18:39:43.659
242.0, -187500.02235174447, -187500.02235174447, 184218.96507966102, -187500.02235174447, -187500.02235174447, -187500.02235174447, -187500.02235174447, -187500.02235174447, 0.054, 0.008, 0.984, 192.0, 0.0, 0.0, 0.0, 0.0, 0.0, 0.0, 0.0, 0.0, 0.0, 1.708990783663255E9, 0.0, 2024-02-26 18:39:43.663
243.0, -187500.02235174447, -187500.02235174447, 184240.15453340465, -187500.02235174447, -187500.02235174447, -187500.02235174447, -187500.02235174447, -187500.02235174447, 0.054, 0.008, 0.984, 192.0, 0.0, 0.0, 0.0, 0.0, 0.0, 0.0, 0.0, 0.0, 0.0, 1.708990783666272E9, 0.0, 2024-02-26 18:39:43.666
244.0, -187500.02235174447, -187500.02235174447, 184242.4344113391, -187500.02235174447, -187500.02235174447, -187500.02235174447, -187500.02235174447, -187500.02235174447, 0.054, 0.008, 0.984, 192.0, 0.0, 0.0, 0.0, 0.0, 0.0, 0.0, 0.0, 0.0, 0.0, 1.708990783670294E9, 0.0, 2024-02-26 18:39:43.670
245.0, -187500.02235174447, -187500.02235174447, 184227.50344604297, -187500.02235174447, -187500.02235174447, -187500.02235174447, -187500.02235174447, -187500.02235174447, 0.056, 0.008, 0.98, 192.0, 1.0, 192.0, 0.0, 64.0, 30.0, 160.0, 0.0, 0.0, 0.0, 1.708990783674293E9, 0.0, 2024-02-26 18:39:43.674
246.0, -187500.02235174447, -187500.02235174447, 184219.9262046726, -187500.02235174447, -187500.02235174447, -187500.02235174447, -187500.02235174447, -187500.02235174447, 0.056, 0.008, 0.98, 192.0, 0.0, 0.0, 0.0, 0.0, 0.0, 0.0, 0.0, 0.0, 0.0, 1.708990783678282E9, 0.0, 2024-02-26 18:39:43.678
247.0, -187500.02235174447, -187500.02235174447, 184225.8941204422, -187500.02235174447, -187500.02235174447, -187500.02235174447, -187500.02235174447, -187500.02235174447, 0.056, 0.008, 0.98, 192.0, 0.0, 0.0, 0.0, 0.0, 0.0, 0.0, 0.0, 0.0, 0.0, 1.708990783683288E9, 0.0, 2024-02-26 18:39:43.683
248.0, -187500.02235174447, -187500.02235174447, 184229.31393734383, -187500.02235174447, -187500.02235174447, -187500.02235174447, -187500.02235174447, -187500.02235174447, 0.056, 0.008, 0.98, 192.0, 0.0, 0.0, 0.0, 0.0, 0.0, 0.0, 0.0, 0.0, 0.0, 1.708990783687303E9, 0.0, 2024-02-26 18:39:43.687
249.0, -187500.02235174447, -187500.02235174447, 184220.2838325839, -187500.02235174447, -187500.02235174447, -187500.02235174447, -187500.02235174447, -187500.02235174447, 0.056, 0.008, 0.98, 192.0, 0.0, 0.0, 0.0, 0.0, 0.0, 0.0, 0.0, 0.0, 0.0, 1.708990783691296E9, 0.0, 2024-02-26 18:39:43.691
250.0, -187500.02235174447, -187500.02235174447, 184217.46751278252, -187500.02235174447, -187500.02235174447, -187500.02235174447, -187500.02235174447, -187500.02235174447, 0.056, 0.008, 0.98, 192.0, 0.0, 0.0, 0.0, 0.0, 0.0, 0.0, 0.0, 0.0, 0.0, 1.708990783694311E9, 0.0, 2024-02-26 18:39:43.694
251.0, -187500.02235174447, -187500.02235174447, 184225.31297508633, -187500.02235174447, -187500.02235174447, -187500.02235174447, -187500.02235174447, -187500.02235174447, 0.056, 0.008, 0.98, 192.0, 0.0, 0.0, 0.0, 0.0, 0.0, 0.0, 0.0, 0.0, 0.0, 1.708990783698299E9, 0.0, 2024-02-26 18:39:43.698
252.0, -187500.02235174447, -187500.02235174447, 184229.3809925772, -187500.02235174447, -187500.02235174447, -187500.02235174447, -187500.02235174447, -187500.02235174447, 0.056, 0.008, 0.98, 192.0, 0.0, 0.0, 0.0, 0.0, 0.0, 0.0, 0.0, 0.0, 0.0, 1.708990783702317E9, 0.0, 2024-02-26 18:39:43.702
253.0, -187500.02235174447, -187500.02235174447, 184221.4237715511, -187500.02235174447, -187500.02235174447, -187500.02235174447, -187500.02235174447, -187500.02235174447, 0.056, 0.008, 0.98, 192.0, 0.0, 0.0, 0.0, 0.0, 0.0, 0.0, 0.0, 0.0, 0.0, 1.708990783706311E9, 0.0, 2024-02-26 18:39:43.706
254.0, -187500.02235174447, -187500.02235174447, 184212.66188772465, -187500.02235174447, -187500.02235174447, -187500.02235174447, -187500.02235174447, -187500.02235174447, 0.056, 0.008, 0.98, 192.0, 0.0, 0.0, 0.0, 0.0, 0.0, 0.0, 0.0, 0.0, 0.0, 1.708990783711344E9, 0.0, 2024-02-26 18:39:43.711
255.0, -187500.02235174447, -187500.02235174447, 184219.3897628057, -187500.02235174447, -187500.02235174447, -187500.02235174447, -187500.02235174447, -187500.02235174447, 0.056, 0.014, 0.982, 192.0, 1.0, 192.0, 0.0, 112.0, 30.0, 176.0, 0.0, 0.0, 0.0, 1.708990783715336E9, 0.0, 2024-02-26 18:39:43.715
0.0, -187500.02235174447, -187500.02235174447, 184225.51414078643, -187500.02235174447, -187500.02235174447, -187500.02235174447, -187500.02235174447, -187500.02235174447, 0.056, 0.014, 0.982, 192.0, 0.0, 0.0, 0.0, 0.0, 0.0, 0.0, 0.0, 0.0, 0.0, 1.708990783719362E9, 0.0, 2024-02-26 18:39:43.719
1.0, -187500.02235174447, -187500.02235174447, 184222.76487621843, -187500.02235174447, -187500.02235174447, -187500.02235174447, -187500.02235174447, -187500.02235174447, 0.056, 0.014, 0.982, 192.0, 0.0, 0.0, 0.0, 0.0, 0.0, 0.0, 0.0, 0.0, 0.0, 1.708990783722353E9, 0.0, 2024-02-26 18:39:43.722
2.0, -187500.02235174447, -187500.02235174447, 184216.8863674267, -187500.02235174447, -187500.02235174447, -187500.02235174447, -187500.02235174447, -187500.02235174447, 0.056, 0.014, 0.982, 192.0, 0.0, 0.0, 0.0, 0.0, 0.0, 0.0, 0.0, 0.0, 0.0, 1.708990783726353E9, 0.0, 2024-02-26 18:39:43.726
3.0, -187500.02235174447, -187500.02235174447, 184227.4810942985, -187500.02235174447, -187500.02235174447, -187500.02235174447, -187500.02235174447, -187500.02235174447, 0.056, 0.014, 0.982, 192.0, 0.0, 0.0, 0.0, 0.0, 0.0, 0.0, 0.0, 0.0, 0.0, 1.708990783730342E9, 0.0, 2024-02-26 18:39:43.730
4.0, -187500.02235174447, -187500.02235174447, 184237.71819325903, -187500.02235174447, -187500.02235174447, -187500.02235174447, -187500.02235174447, -187500.02235174447, 0.056, 0.014, 0.982, 192.0, 0.0, 0.0, 0.0, 0.0, 0.0, 0.0, 0.0, 0.0, 0.0, 1.708990783734347E9, 0.0, 2024-02-26 18:39:43.734
5.0, -187500.02235174447, -187500.02235174447, 184235.01363217994, -187500.02235174447, -187500.02235174447, -187500.02235174447, -187500.02235174447, -187500.02235174447, 0.056, 0.014, 0.982, 192.0, 0.0, 0.0, 0.0, 0.0, 0.0, 0.0, 0.0, 0.0, 0.0, 1.708990783739357E9, 0.0, 2024-02-26 18:39:43.739
6.0, -187500.02235174447, -187500.02235174447, 184217.91454767162, -187500.02235174447, -187500.02235174447, -187500.02235174447, -187500.02235174447, -187500.02235174447, 0.056, 0.014, 0.982, 192.0, 0.0, 0.0, 0.0, 0.0, 0.0, 0.0, 0.0, 0.0, 0.0, 1.708990783743351E9, 0.0, 2024-02-26 18:39:43.743
7.0, -187500.02235174447, -187500.02235174447, 184208.5715184893, -187500.02235174447, -187500.02235174447, -187500.02235174447, -187500.02235174447, -187500.02235174447, 0.056, 0.014, 0.982, 192.0, 0.0, 0.0, 0.0, 0.0, 0.0, 0.0, 0.0, 0.0, 0.0, 1.708990783747358E9, 0.0, 2024-02-26 18:39:43.747
8.0, -187500.02235174447, -187500.02235174447, 184205.10699809875, -187500.02235174447, -187500.02235174447, -187500.02235174447, -187500.02235174447, -187500.02235174447, 0.052000000000000005, 0.016, 0.978, 192.0, 1.0, 160.0, 0.0, 128.0, 30.0, 144.0, 0.0, 0.0, 0.0, 1.708990783750356E9, 0.0, 2024-02-26 18:39:43.750
9.0, -187500.02235174447, -187500.02235174447, 184185.43746297807, -187500.02235174447, -187500.02235174447, -187500.02235174447, -187500.02235174447, -187500.02235174447, 0.052000000000000005, 0.016, 0.978, 192.0, 0.0, 0.0, 0.0, 0.0, 0.0, 0.0, 0.0, 0.0, 0.0, 1.708990783754393E9, 0.0, 2024-02-26 18:39:43.754
10.0, -187500.02235174447, -187500.02235174447, 184163.5774569008, -187500.02235174447, -187500.02235174447, -187500.02235174447, -187500.02235174447, -187500.02235174447, 0.052000000000000005, 0.016, 0.978, 192.0, 0.0, 0.0, 0.0, 0.0, 0.0, 0.0, 0.0, 0.0, 0.0, 1.708990783758393E9, 0.0, 2024-02-26 18:39:43.758
11.0, -187500.02235174447, -187500.02235174447, 184164.471526679, -187500.02235174447, -187500.02235174447, -187500.02235174447, -187500.02235174447, -187500.02235174447, 0.052000000000000005, 0.016, 0.978, 192.0, 0.0, 0.0, 0.0, 0.0, 0.0, 0.0, 0.0, 0.0, 0.0, 1.708990783762386E9, 0.0, 2024-02-26 18:39:43.762
12.0, -187500.02235174447, -187500.02235174447, 184186.39858798965, -187500.02235174447, -187500.02235174447, -187500.02235174447, -187500.02235174447, -187500.02235174447, 0.052000000000000005, 0.016, 0.978, 192.0, 0.0, 0.0, 0.0, 0.0, 0.0, 0.0, 0.0, 0.0, 0.0, 1.708990783767386E9, 0.0, 2024-02-26 18:39:43.767
13.0, -187500.02235174447, -187500.02235174447, 184222.00491690697, -187500.02235174447, -187500.02235174447, -187500.02235174447, -187500.02235174447, -187500.02235174447, 0.052000000000000005, 0.016, 0.978, 192.0, 0.0, 0.0, 0.0, 0.0, 0.0, 0.0, 0.0, 0.0, 0.0, 1.708990783771388E9, 0.0, 2024-02-26 18:39:43.771
14.0, -187500.02235174447, -187500.02235174447, 184243.4849433285, -187500.02235174447, -187500.02235174447, -187500.02235174447, -187500.02235174447, -187500.02235174447, 0.052000000000000005, 0.016, 0.978, 192.0, 0.0, 0.0, 0.0, 0.0, 0.0, 0.0, 0.0, 0.0, 0.0, 1.708990783774412E9, 0.0, 2024-02-26 18:39:43.774
15.0, -187500.02235174447, -187500.02235174447, 184262.46157437106, -187500.02235174447, -187500.02235174447, -187500.02235174447, -187500.02235174447, -187500.02235174447, 0.052000000000000005, 0.016, 0.978, 192.0, 0.0, 0.0, 0.0, 0.0, 0.0, 0.0, 0.0, 0.0, 0.0, 1.708990783778386E9, 0.0, 2024-02-26 18:39:43.778
16.0, -187500.02235174447, -187500.02235174447, 184287.74139735, -187500.02235174447, -187500.02235174447, -187500.02235174447, -187500.02235174447, -187500.02235174447, 0.052000000000000005, 0.016, 0.978, 192.0, 0.0, 0.0, 0.0, 0.0, 0.0, 0.0, 0.0, 0.0, 0.0, 1.708990783782382E9, 0.0, 2024-02-26 18:39:43.782
17.0, -187500.02235174447, -187500.02235174447, 184307.63444991523, -187500.02235174447, -187500.02235174447, -187500.02235174447, -187500.02235174447, -187500.02235174447, 0.052000000000000005, 0.016, 0.978, 192.0, 0.0, 0.0, 0.0, 0.0, 0.0, 0.0, 0.0, 0.0, 0.0, 1.708990783786378E9, 0.0, 2024-02-26 18:39:43.786
18.0, -187500.02235174447, -187500.02235174447, 184314.33997325183, -187500.02235174447, -187500.02235174447, -187500.02235174447, -187500.02235174447, -187500.02235174447, 0.052000000000000005, 0.012, 0.982, 192.0, 1.0, 160.0, 0.0, 96.0, 30.0, 176.0, 0.0, 0.0, 0.0, 1.708990783790408E9, 0.0, 2024-02-26 18:39:43.790
19.0, -187500.02235174447, -187500.02235174447, 184321.22431054406, -187500.02235174447, -187500.02235174447, -187500.02235174447, -187500.02235174447, -187500.02235174447, 0.052000000000000005, 0.012, 0.982, 192.0, 0.0, 0.0, 0.0, 0.0, 0.0, 0.0, 0.0, 0.0, 0.0, 1.708990783795428E9, 0.0, 2024-02-26 18:39:43.795
20.0, -187500.02235174447, -187500.02235174447, 184339.39627878624, -187500.02235174447, -187500.02235174447, -187500.02235174447, -187500.02235174447, -187500.02235174447, 0.052000000000000005, 0.012, 0.982, 192.0, 0.0, 0.0, 0.0, 0.0, 0.0, 0.0, 0.0, 0.0, 0.0, 1.708990783799418E9, 0.0, 2024-02-26 18:39:43.799
21.0, -187500.02235174447, -187500.02235174447, 184346.28061607847, -187500.02235174447, -187500.02235174447, -187500.02235174447, -187500.02235174447, -187500.02235174447, 0.052000000000000005, 0.012, 0.982, 192.0, 0.0, 0.0, 0.0, 0.0, 0.0, 0.0, 0.0, 0.0, 0.0, 1.708990783802414E9, 0.0, 2024-02-26 18:39:43.802
22.0, -187500.02235174447, -187500.02235174447, 184332.80251417193, -187500.02235174447, -187500.02235174447, -187500.02235174447, -187500.02235174447, -187500.02235174447, 0.052000000000000005, 0.012, 0.982, 192.0, 0.0, 0.0, 0.0, 0.0, 0.0, 0.0, 0.0, 0.0, 0.0, 1.708990783806427E9, 0.0, 2024-02-26 18:39:43.806
23.0, -187500.02235174447, -187500.02235174447, 184314.56349069637, -187500.02235174447, -187500.02235174447, -187500.02235174447, -187500.02235174447, -187500.02235174447, 0.052000000000000005, 0.012, 0.982, 192.0, 0.0, 0.0, 0.0, 0.0, 0.0, 0.0, 0.0, 0.0, 0.0, 1.708990783810414E9, 0.0, 2024-02-26 18:39:43.810
24.0, -187500.02235174447, -187500.02235174447, 184310.98721158353, -187500.02235174447, -187500.02235174447, -187500.02235174447, -187500.02235174447, -187500.02235174447, 0.052000000000000005, 0.012, 0.982, 192.0, 0.0, 0.0, 0.0, 0.0, 0.0, 0.0, 0.0, 0.0, 0.0, 1.708990783814415E9, 0.0, 2024-02-26 18:39:43.814
25.0, -187500.02235174447, -187500.02235174447, 184302.78412136843, -187500.02235174447, -187500.02235174447, -187500.02235174447, -187500.02235174447, -187500.02235174447, 0.052000000000000005, 0.012, 0.982, 192.0, 0.0, 0.0, 0.0, 0.0, 0.0, 0.0, 0.0, 0.0, 0.0, 1.708990783818415E9, 0.0, 2024-02-26 18:39:43.818
26.0, -187500.02235174447, -187500.02235174447, 184286.2438304715, -187500.02235174447, -187500.02235174447, -187500.02235174447, -187500.02235174447, -187500.02235174447, 0.052000000000000005, 0.012, 0.982, 192.0, 0.0, 0.0, 0.0, 0.0, 0.0, 0.0, 0.0, 0.0, 0.0, 1.708990783823421E9, 0.0, 2024-02-26 18:39:43.823
27.0, -187500.02235174447, -187500.02235174447, 184267.17779245114, -187500.02235174447, -187500.02235174447, -187500.02235174447, -187500.02235174447, -187500.02235174447, 0.052000000000000005, 0.012, 0.982, 192.0, 0.0, 0.0, 0.0, 0.0, 0.0, 0.0, 0.0, 0.0, 0.0, 1.708990783827417E9, 0.0, 2024-02-26 18:39:43.827
28.0, -187500.02235174447, -187500.02235174447, 184255.95721673456, -187500.02235174447, -187500.02235174447, -187500.02235174447, -187500.02235174447, -187500.02235174447, 0.05, 0.008, 0.982, 192.0, 1.0, 144.0, 0.0, 64.0, 30.0, 176.0, 0.0, 0.0, 0.0, 1.708990783830418E9, 0.0, 2024-02-26 18:39:43.830
29.0, -187500.02235174447, -187500.02235174447, 184226.85524545377, -187500.02235174447, -187500.02235174447, -187500.02235174447, -187500.02235174447, -187500.02235174447, 0.05, 0.008, 0.982, 192.0, 0.0, 0.0, 0.0, 0.0, 0.0, 0.0, 0.0, 0.0, 0.0, 1.708990783834417E9, 0.0, 2024-02-26 18:39:43.834
30.0, -187500.02235174447, -187500.02235174447, 184158.43655567607, -187500.02235174447, -187500.02235174447, -187500.02235174447, -187500.02235174447, -187500.02235174447, 0.05, 0.008, 0.982, 192.0, 0.0, 0.0, 0.0, 0.0, 0.0, 0.0, 0.0, 0.0, 0.0, 1.708990783838474E9, 0.0, 2024-02-26 18:39:43.838
31.0, -187500.02235174447, -187500.02235174447, 184053.42806022504, -187500.02235174447, -187500.02235174447, -187500.02235174447, -187500.02235174447, -187500.02235174447, 0.05, 0.008, 0.982, 192.0, 0.0, 0.0, 0.0, 0.0, 0.0, 0.0, 0.0, 0.0, 0.0, 1.708990783842463E9, 0.0, 2024-02-26 18:39:43.842
32.0, -187500.02235174447, -187500.02235174447, 183942.5187042378, -187500.02235174447, -187500.02235174447, -187500.02235174447, -187500.02235174447, -187500.02235174447, 0.05, 0.008, 0.982, 192.0, 0.0, 0.0, 0.0, 0.0, 0.0, 0.0, 0.0, 0.0, 0.0, 1.708990783846458E9, 0.0, 2024-02-26 18:39:43.846
33.0, -187500.02235174447, -187500.02235174447, 183824.56854874713, -187500.02235174447, -187500.02235174447, -187500.02235174447, -187500.02235174447, -187500.02235174447, 0.05, 0.008, 0.982, 192.0, 0.0, 0.0, 0.0, 0.0, 0.0, 0.0, 0.0, 0.0, 0.0, 1.708990783850461E9, 0.0, 2024-02-26 18:39:43.850
34.0, -187500.02235174447, -187500.02235174447, 183696.1130733625, -187500.02235174447, -187500.02235174447, -187500.02235174447, -187500.02235174447, -187500.02235174447, 0.05, 0.008, 0.982, 192.0, 0.0, 0.0, 0.0, 0.0, 0.0, 0.0, 0.0, 0.0, 0.0, 1.708990783855461E9, 0.0, 2024-02-26 18:39:43.855
35.0, -187500.02235174447, -187500.02235174447, 183565.3777200434, -187500.02235174447, -187500.02235174447, -187500.02235174447, -187500.02235174447, -187500.02235174447, 0.05, 0.008, 0.982, 192.0, 0.0, 0.0, 0.0, 0.0, 0.0, 0.0, 0.0, 0.0, 0.0, 1.70899078385848E9, 0.0, 2024-02-26 18:39:43.858
36.0, -187500.02235174447, -187500.02235174447, 183457.4411460687, -187500.02235174447, -187500.02235174447, -187500.02235174447, -187500.02235174447, -187500.02235174447, 0.05, 0.008, 0.982, 192.0, 0.0, 0.0, 0.0, 0.0, 0.0, 0.0, 0.0, 0.0, 0.0, 1.708990783862468E9, 0.0, 2024-02-26 18:39:43.862
37.0, -187500.02235174447, -187500.02235174447, 183367.72124382513, -187500.02235174447, -187500.02235174447, -187500.02235174447, -187500.02235174447, -187500.02235174447, 0.05, 0.008, 0.982, 192.0, 0.0, 0.0, 0.0, 0.0, 0.0, 0.0, 0.0, 0.0, 0.0, 1.708990783866471E9, 0.0, 2024-02-26 18:39:43.866
38.0, -187500.02235174447, -187500.02235174447, 183286.1150248188, -187500.02235174447, -187500.02235174447, -187500.02235174447, -187500.02235174447, -187500.02235174447, 0.056, 0.006, 0.982, 192.0, 1.0, 192.0, 0.0, 48.0, 30.0, 176.0, 0.0, 0.0, 0.0, 1.70899078387046E9, 0.0, 2024-02-26 18:39:43.870
39.0, -187500.02235174447, -187500.02235174447, 183209.26972738144, -187500.02235174447, -187500.02235174447, -187500.02235174447, -187500.02235174447, -187500.02235174447, 0.056, 0.006, 0.982, 192.0, 0.0, 0.0, 0.0, 0.0, 0.0, 0.0, 0.0, 0.0, 0.0, 1.70899078387452E9, 0.0, 2024-02-26 18:39:43.874
40.0, -187500.02235174447, -187500.02235174447, 183155.20085754406, -187500.02235174447, -187500.02235174447, -187500.02235174447, -187500.02235174447, -187500.02235174447, 0.056, 0.006, 0.982, 192.0, 0.0, 0.0, 0.0, 0.0, 0.0, 0.0, 0.0, 0.0, 0.0, 1.708990783878514E9, 0.0, 2024-02-26 18:39:43.878
41.0, -187500.02235174447, -187500.02235174447, 183129.9210345651, -187500.02235174447, -187500.02235174447, -187500.02235174447, -187500.02235174447, -187500.02235174447, 0.056, 0.006, 0.982, 192.0, 0.0, 0.0, 0.0, 0.0, 0.0, 0.0, 0.0, 0.0, 0.0, 1.70899078388351E9, 0.0, 2024-02-26 18:39:43.883
42.0, -187500.02235174447, -187500.02235174447, 183114.38657216867, -187500.02235174447, -187500.02235174447, -187500.02235174447, -187500.02235174447, -187500.02235174447, 0.056, 0.006, 0.982, 192.0, 0.0, 0.0, 0.0, 0.0, 0.0, 0.0, 0.0, 0.0, 0.0, 1.708990783886509E9, 0.0, 2024-02-26 18:39:43.886
43.0, -187500.02235174447, -187500.02235174447, 183099.74617955045, -187500.02235174447, -187500.02235174447, -187500.02235174447, -187500.02235174447, -187500.02235174447, 0.056, 0.006, 0.982, 192.0, 0.0, 0.0, 0.0, 0.0, 0.0, 0.0, 0.0, 0.0, 0.0, 1.708990783890507E9, 0.0, 2024-02-26 18:39:43.890
44.0, -187500.02235174447, -187500.02235174447, 183096.46047311553, -187500.02235174447, -187500.02235174447, -187500.02235174447, -187500.02235174447, -187500.02235174447, 0.056, 0.006, 0.982, 192.0, 0.0, 0.0, 0.0, 0.0, 0.0, 0.0, 0.0, 0.0, 0.0, 1.708990783894504E9, 0.0, 2024-02-26 18:39:43.894
45.0, -187500.02235174447, -187500.02235174447, 183113.716019835, -187500.02235174447, -187500.02235174447, -187500.02235174447, -187500.02235174447, -187500.02235174447, 0.056, 0.006, 0.982, 192.0, 0.0, 0.0, 0.0, 0.0, 0.0, 0.0, 0.0, 0.0, 0.0, 1.708990783898523E9, 0.0, 2024-02-26 18:39:43.898
46.0, -187500.02235174447, -187500.02235174447, 183130.09984852074, -187500.02235174447, -187500.02235174447, -187500.02235174447, -187500.02235174447, -187500.02235174447, 0.056, 0.006, 0.982, 192.0, 0.0, 0.0, 0.0, 0.0, 0.0, 0.0, 0.0, 0.0, 0.0, 1.708990783902515E9, 0.0, 2024-02-26 18:39:43.902
47.0, -187500.02235174447, -187500.02235174447, 183138.41469745812, -187500.02235174447, -187500.02235174447, -187500.02235174447, -187500.02235174447, -187500.02235174447, 0.056, 0.006, 0.982, 192.0, 0.0, 0.0, 0.0, 0.0, 0.0, 0.0, 0.0, 0.0, 0.0, 1.708990783906511E9, 0.0, 2024-02-26 18:39:43.906
48.0, -187500.02235174447, -187500.02235174447, 183150.99872958646, -187500.02235174447, -187500.02235174447, -187500.02235174447, -187500.02235174447, -187500.02235174447, 0.058, 0.01, 0.986, 192.0, 1.0, 208.0, 0.0, 80.0, 30.0, 208.0, 0.0, 0.0, 0.0, 1.708990783911511E9, 0.0, 2024-02-26 18:39:43.911
49.0, -187500.02235174447, -187500.02235174447, 183161.39229075817, -187500.02235174447, -187500.02235174447, -187500.02235174447, -187500.02235174447, -187500.02235174447, 0.058, 0.01, 0.986, 192.0, 0.0, 0.0, 0.0, 0.0, 0.0, 0.0, 0.0, 0.0, 0.0, 1.708990783914506E9, 0.0, 2024-02-26 18:39:43.914
50.0, -187500.02235174447, -187500.02235174447, 183166.82376466083, -187500.02235174447, -187500.02235174447, -187500.02235174447, -187500.02235174447, -187500.02235174447, 0.058, 0.01, 0.986, 192.0, 0.0, 0.0, 0.0, 0.0, 0.0, 0.0, 0.0, 0.0, 0.0, 1.708990783918509E9, 0.0, 2024-02-26 18:39:43.918
51.0, -187500.02235174447, -187500.02235174447, 183160.74409016897, -187500.02235174447, -187500.02235174447, -187500.02235174447, -187500.02235174447, -187500.02235174447, 0.058, 0.01, 0.986, 192.0, 0.0, 0.0, 0.0, 0.0, 0.0, 0.0, 0.0, 0.0, 0.0, 1.708990783922552E9, 0.0, 2024-02-26 18:39:43.922
52.0, -187500.02235174447, -187500.02235174447, 183144.3379097388, -187500.02235174447, -187500.02235174447, -187500.02235174447, -187500.02235174447, -187500.02235174447, 0.058, 0.01, 0.986, 192.0, 0.0, 0.0, 0.0, 0.0, 0.0, 0.0, 0.0, 0.0, 0.0, 1.708990783926559E9, 0.0, 2024-02-26 18:39:43.926
53.0, -187500.02235174447, -187500.02235174447, 183132.5808921553, -187500.02235174447, -187500.02235174447, -187500.02235174447, -187500.02235174447, -187500.02235174447, 0.058, 0.01, 0.986, 192.0, 0.0, 0.0, 0.0, 0.0, 0.0, 0.0, 0.0, 0.0, 0.0, 1.708990783932555E9, 0.0, 2024-02-26 18:39:43.932
54.0, -187500.02235174447, -187500.02235174447, 183111.03381050038, -187500.02235174447, -187500.02235174447, -187500.02235174447, -187500.02235174447, -187500.02235174447, 0.058, 0.01, 0.986, 192.0, 0.0, 0.0, 0.0, 0.0, 0.0, 0.0, 0.0, 0.0, 0.0, 1.708990783935565E9, 0.0, 2024-02-26 18:39:43.935
55.0, -187500.02235174447, -187500.02235174447, 183077.95322870652, -187500.02235174447, -187500.02235174447, -187500.02235174447, -187500.02235174447, -187500.02235174447, 0.058, 0.01, 0.986, 192.0, 0.0, 0.0, 0.0, 0.0, 0.0, 0.0, 0.0, 0.0, 0.0, 1.708990783938551E9, 0.0, 2024-02-26 18:39:43.938
56.0, -187500.02235174447, -187500.02235174447, 183038.5471032318, -187500.02235174447, -187500.02235174447, -187500.02235174447, -187500.02235174447, -187500.02235174447, 0.058, 0.01, 0.986, 192.0, 0.0, 0.0, 0.0, 0.0, 0.0, 0.0, 0.0, 0.0, 0.0, 1.708990783941548E9, 0.0, 2024-02-26 18:39:43.941
57.0, -187500.02235174447, -187500.02235174447, 183011.56854767425, -187500.02235174447, -187500.02235174447, -187500.02235174447, -187500.02235174447, -187500.02235174447, 0.058, 0.01, 0.986, 192.0, 0.0, 0.0, 0.0, 0.0, 0.0, 0.0, 0.0, 0.0, 0.0, 1.708990783945543E9, 0.0, 2024-02-26 18:39:43.945
58.0, -187500.02235174447, -187500.02235174447, 182986.51224213987, -187500.02235174447, -187500.02235174447, -187500.02235174447, -187500.02235174447, -187500.02235174447, 0.058, 0.006, 0.986, 192.0, 1.0, 208.0, 0.0, 48.0, 30.0, 208.0, 0.0, 0.0, 0.0, 1.708990783950552E9, 0.0, 2024-02-26 18:39:43.950
59.0, -187500.02235174447, -187500.02235174447, 182950.90591322255, -187500.02235174447, -187500.02235174447, -187500.02235174447, -187500.02235174447, -187500.02235174447, 0.058, 0.006, 0.986, 192.0, 0.0, 0.0, 0.0, 0.0, 0.0, 0.0, 0.0, 0.0, 0.0, 1.708990783954554E9, 0.0, 2024-02-26 18:39:43.954
60.0, -187500.02235174447, -187500.02235174447, 182904.63780220007, -187500.02235174447, -187500.02235174447, -187500.02235174447, -187500.02235174447, -187500.02235174447, 0.058, 0.006, 0.986, 192.0, 0.0, 0.0, 0.0, 0.0, 0.0, 0.0, 0.0, 0.0, 0.0, 1.70899078395856E9, 0.0, 2024-02-26 18:39:43.958
61.0, -187500.02235174447, -187500.02235174447, 182866.63983662604, -187500.02235174447, -187500.02235174447, -187500.02235174447, -187500.02235174447, -187500.02235174447, 0.058, 0.006, 0.986, 192.0, 0.0, 0.0, 0.0, 0.0, 0.0, 0.0, 0.0, 0.0, 0.0, 1.70899078396259E9, 0.0, 2024-02-26 18:39:43.962
62.0, -187500.02235174447, -187500.02235174447, 182833.8051240212, -187500.02235174447, -187500.02235174447, -187500.02235174447, -187500.02235174447, -187500.02235174447, 0.058, 0.006, 0.986, 192.0, 0.0, 0.0, 0.0, 0.0, 0.0, 0.0, 0.0, 0.0, 0.0, 1.708990783966584E9, 0.0, 2024-02-26 18:39:43.966
63.0, -187500.02235174447, -187500.02235174447, 182795.2036613469, -187500.02235174447, -187500.02235174447, -187500.02235174447, -187500.02235174447, -187500.02235174447, 0.058, 0.006, 0.986, 192.0, 0.0, 0.0, 0.0, 0.0, 0.0, 0.0, 0.0, 0.0, 0.0, 1.708990783969591E9, 0.0, 2024-02-26 18:39:43.969
64.0, -187500.02235174447, -187500.02235174447, 182752.35536722606, -187500.02235174447, -187500.02235174447, -187500.02235174447, -187500.02235174447, -187500.02235174447, 0.058, 0.006, 0.986, 192.0, 0.0, 0.0, 0.0, 0.0, 0.0, 0.0, 0.0, 0.0, 0.0, 1.708990783974588E9, 0.0, 2024-02-26 18:39:43.974
65.0, -187500.02235174447, -187500.02235174447, 182720.7723523107, -187500.02235174447, -187500.02235174447, -187500.02235174447, -187500.02235174447, -187500.02235174447, 0.058, 0.006, 0.986, 192.0, 0.0, 0.0, 0.0, 0.0, 0.0, 0.0, 0.0, 0.0, 0.0, 1.708990783978585E9, 0.0, 2024-02-26 18:39:43.978
66.0, -187500.02235174447, -187500.02235174447, 182701.54985207916, -187500.02235174447, -187500.02235174447, -187500.02235174447, -187500.02235174447, -187500.02235174447, 0.058, 0.006, 0.986, 192.0, 0.0, 0.0, 0.0, 0.0, 0.0, 0.0, 0.0, 0.0, 0.0, 1.708990783982584E9, 0.0, 2024-02-26 18:39:43.982
67.0, -187500.02235174447, -187500.02235174447, 182680.60626752453, -187500.02235174447, -187500.02235174447, -187500.02235174447, -187500.02235174447, -187500.02235174447, 0.058, 0.006, 0.986, 192.0, 0.0, 0.0, 0.0, 0.0, 0.0, 0.0, 0.0, 0.0, 0.0, 1.708990783986593E9, 0.0, 2024-02-26 18:39:43.986
68.0, -187500.02235174447, -187500.02235174447, 182652.08544159954, -187500.02235174447, -187500.02235174447, -187500.02235174447, -187500.02235174447, -187500.02235174447, 0.056, 0.002, 0.99, 192.0, 1.0, 192.0, 0.0, 16.0, 30.0, 240.0, 0.0, 0.0, 0.0, 1.708990783990589E9, 0.0, 2024-02-26 18:39:43.990
69.0, -187500.02235174447, -187500.02235174447, 182630.2477872667, -187500.02235174447, -187500.02235174447, -187500.02235174447, -187500.02235174447, -187500.02235174447, 0.056, 0.002, 0.99, 192.0, 0.0, 0.0, 0.0, 0.0, 0.0, 0.0, 0.0, 0.0, 0.0, 1.708990783993589E9, 0.0, 2024-02-26 18:39:43.993
70.0, -187500.02235174447, -187500.02235174447, 182626.7609151317, -187500.02235174447, -187500.02235174447, -187500.02235174447, -187500.02235174447, -187500.02235174447, 0.056, 0.002, 0.99, 192.0, 0.0, 0.0, 0.0, 0.0, 0.0, 0.0, 0.0, 0.0, 0.0, 1.708990783997592E9, 0.0, 2024-02-26 18:39:43.997
71.0, -187500.02235174447, -187500.02235174447, 182626.1574180314, -187500.02235174447, -187500.02235174447, -187500.02235174447, -187500.02235174447, -187500.02235174447, 0.056, 0.002, 0.99, 192.0, 0.0, 0.0, 0.0, 0.0, 0.0, 0.0, 0.0, 0.0, 0.0, 1.70899078400165E9, 0.0, 2024-02-26 18:39:44.001
72.0, -187500.02235174447, -187500.02235174447, 182616.81438884907, -187500.02235174447, -187500.02235174447, -187500.02235174447, -187500.02235174447, -187500.02235174447, 0.056, 0.002, 0.99, 192.0, 0.0, 0.0, 0.0, 0.0, 0.0, 0.0, 0.0, 0.0, 0.0, 1.708990784006699E9, 0.0, 2024-02-26 18:39:44.006
73.0, -187500.02235174447, -187500.02235174447, 182611.87465332446, -187500.02235174447, -187500.02235174447, -187500.02235174447, -187500.02235174447, -187500.02235174447, 0.056, 0.002, 0.99, 192.0, 0.0, 0.0, 0.0, 0.0, 0.0, 0.0, 0.0, 0.0, 0.0, 1.708990784010649E9, 0.0, 2024-02-26 18:39:44.010
74.0, -187500.02235174447, -187500.02235174447, 182628.1467232879, -187500.02235174447, -187500.02235174447, -187500.02235174447, -187500.02235174447, -187500.02235174447, 0.056, 0.002, 0.99, 192.0, 0.0, 0.0, 0.0, 0.0, 0.0, 0.0, 0.0, 0.0, 0.0, 1.708990784014654E9, 0.0, 2024-02-26 18:39:44.014
75.0, -187500.02235174447, -187500.02235174447, 182650.23024680978, -187500.02235174447, -187500.02235174447, -187500.02235174447, -187500.02235174447, -187500.02235174447, 0.056, 0.002, 0.99, 192.0, 0.0, 0.0, 0.0, 0.0, 0.0, 0.0, 0.0, 0.0, 0.0, 1.708990784018643E9, 0.0, 2024-02-26 18:39:44.018
76.0, -187500.02235174447, -187500.02235174447, 182667.48579352925, -187500.02235174447, -187500.02235174447, -187500.02235174447, -187500.02235174447, -187500.02235174447, 0.056, 0.002, 0.99, 192.0, 0.0, 0.0, 0.0, 0.0, 0.0, 0.0, 0.0, 0.0, 0.0, 1.708990784021652E9, 0.0, 2024-02-26 18:39:44.021
77.0, -187500.02235174447, -187500.02235174447, 182685.3671890935, -187500.02235174447, -187500.02235174447, -187500.02235174447, -187500.02235174447, -187500.02235174447, 0.056, 0.002, 0.99, 192.0, 0.0, 0.0, 0.0, 0.0, 0.0, 0.0, 0.0, 0.0, 0.0, 1.708990784025644E9, 0.0, 2024-02-26 18:39:44.025
78.0, -187500.02235174447, -187500.02235174447, 182720.95116626634, -187500.02235174447, -187500.02235174447, -187500.02235174447, -187500.02235174447, -187500.02235174447, 0.052000000000000005, 0.006, 0.988, 192.0, 1.0, 160.0, 0.0, 48.0, 30.0, 224.0, 0.0, 0.0, 0.0, 1.708990784029633E9, 0.0, 2024-02-26 18:39:44.029
79.0, -187500.02235174447, -187500.02235174447, 182761.7878033862, -187500.02235174447, -187500.02235174447, -187500.02235174447, -187500.02235174447, -187500.02235174447, 0.052000000000000005, 0.006, 0.988, 192.0, 0.0, 0.0, 0.0, 0.0, 0.0, 0.0, 0.0, 0.0, 0.0, 1.708990784034661E9, 0.0, 2024-02-26 18:39:44.034
80.0, -187500.02235174447, -187500.02235174447, 182797.1035596256, -187500.02235174447, -187500.02235174447, -187500.02235174447, -187500.02235174447, -187500.02235174447, 0.052000000000000005, 0.006, 0.988, 192.0, 0.0, 0.0, 0.0, 0.0, 0.0, 0.0, 0.0, 0.0, 0.0, 1.708990784038641E9, 0.0, 2024-02-26 18:39:44.038
81.0, -187500.02235174447, -187500.02235174447, 182829.08890594114, -187500.02235174447, -187500.02235174447, -187500.02235174447, -187500.02235174447, -187500.02235174447, 0.052000000000000005, 0.006, 0.988, 192.0, 0.0, 0.0, 0.0, 0.0, 0.0, 0.0, 0.0, 0.0, 0.0, 1.708990784042678E9, 0.0, 2024-02-26 18:39:44.042
82.0, -187500.02235174447, -187500.02235174447, 182868.5620866492, -187500.02235174447, -187500.02235174447, -187500.02235174447, -187500.02235174447, -187500.02235174447, 0.052000000000000005, 0.006, 0.988, 192.0, 0.0, 0.0, 0.0, 0.0, 0.0, 0.0, 0.0, 0.0, 0.0, 1.708990784046681E9, 0.0, 2024-02-26 18:39:44.046
83.0, -187500.02235174447, -187500.02235174447, 182910.04692435826, -187500.02235174447, -187500.02235174447, -187500.02235174447, -187500.02235174447, -187500.02235174447, 0.052000000000000005, 0.006, 0.988, 192.0, 0.0, 0.0, 0.0, 0.0, 0.0, 0.0, 0.0, 0.0, 0.0, 1.708990784049669E9, 0.0, 2024-02-26 18:39:44.049
84.0, -187500.02235174447, -187500.02235174447, 182942.41225032954, -187500.02235174447, -187500.02235174447, -187500.02235174447, -187500.02235174447, -187500.02235174447, 0.052000000000000005, 0.006, 0.988, 192.0, 0.0, 0.0, 0.0, 0.0, 0.0, 0.0, 0.0, 0.0, 0.0, 1.708990784053699E9, 0.0, 2024-02-26 18:39:44.053
85.0, -187500.02235174447, -187500.02235174447, 182966.1274511966, -187500.02235174447, -187500.02235174447, -187500.02235174447, -187500.02235174447, -187500.02235174447, 0.052000000000000005, 0.006, 0.988, 192.0, 0.0, 0.0, 0.0, 0.0, 0.0, 0.0, 0.0, 0.0, 0.0, 1.708990784059706E9, 0.0, 2024-02-26 18:39:44.059
86.0, -187500.02235174447, -187500.02235174447, 182998.78334984582, -187500.02235174447, -187500.02235174447, -187500.02235174447, -187500.02235174447, -187500.02235174447, 0.052000000000000005, 0.006, 0.988, 192.0, 0.0, 0.0, 0.0, 0.0, 0.0, 0.0, 0.0, 0.0, 0.0, 1.708990784062705E9, 0.0, 2024-02-26 18:39:44.062
87.0, -187500.02235174447, -187500.02235174447, 183034.12145782966, -187500.02235174447, -187500.02235174447, -187500.02235174447, -187500.02235174447, -187500.02235174447, 0.052000000000000005, 0.006, 0.988, 192.0, 0.0, 0.0, 0.0, 0.0, 0.0, 0.0, 0.0, 0.0, 0.0, 1.708990784066702E9, 0.0, 2024-02-26 18:39:44.066
88.0, -187500.02235174447, -187500.02235174447, 183075.29337111634, -187500.02235174447, -187500.02235174447, -187500.02235174447, -187500.02235174447, -187500.02235174447, 0.054, 0.008, 0.986, 192.0, 1.0, 176.0, 0.0, 64.0, 30.0, 208.0, 0.0, 0.0, 0.0, 1.708990784070688E9, 0.0, 2024-02-26 18:39:44.070
89.0, -187500.02235174447, -187500.02235174447, 183102.65190632964, -187500.02235174447, -187500.02235174447, -187500.02235174447, -187500.02235174447, -187500.02235174447, 0.054, 0.008, 0.986, 192.0, 0.0, 0.0, 0.0, 0.0, 0.0, 0.0, 0.0, 0.0, 0.0, 1.708990784073747E9, 0.0, 2024-02-26 18:39:44.073
90.0, -187500.02235174447, -187500.02235174447, 183134.54784566734, -187500.02235174447, -187500.02235174447, -187500.02235174447, -187500.02235174447, -187500.02235174447, 0.054, 0.008, 0.986, 192.0, 0.0, 0.0, 0.0, 0.0, 0.0, 0.0, 0.0, 0.0, 0.0, 1.708990784077758E9, 0.0, 2024-02-26 18:39:44.077
91.0, -187500.02235174447, -187500.02235174447, 183175.09391010928, -187500.02235174447, -187500.02235174447, -187500.02235174447, -187500.02235174447, -187500.02235174447, 0.054, 0.008, 0.986, 192.0, 0.0, 0.0, 0.0, 0.0, 0.0, 0.0, 0.0, 0.0, 0.0, 1.708990784081726E9, 0.0, 2024-02-26 18:39:44.081
92.0, -187500.02235174447, -187500.02235174447, 183204.6429162792, -187500.02235174447, -187500.02235174447, -187500.02235174447, -187500.02235174447, -187500.02235174447, 0.054, 0.008, 0.986, 192.0, 0.0, 0.0, 0.0, 0.0, 0.0, 0.0, 0.0, 0.0, 0.0, 1.708990784085717E9, 0.0, 2024-02-26 18:39:44.085
93.0, -187500.02235174447, -187500.02235174447, 183206.006372691, -187500.02235174447, -187500.02235174447, -187500.02235174447, -187500.02235174447, -187500.02235174447, 0.054, 0.008, 0.986, 192.0, 0.0, 0.0, 0.0, 0.0, 0.0, 0.0, 0.0, 0.0, 0.0, 1.708990784090741E9, 0.0, 2024-02-26 18:39:44.090
94.0, -187500.02235174447, -187500.02235174447, 183211.5496053159, -187500.02235174447, -187500.02235174447, -187500.02235174447, -187500.02235174447, -187500.02235174447, 0.054, 0.008, 0.986, 192.0, 0.0, 0.0, 0.0, 0.0, 0.0, 0.0, 0.0, 0.0, 0.0, 1.708990784094733E9, 0.0, 2024-02-26 18:39:44.094
95.0, -187500.02235174447, -187500.02235174447, 183237.20940795058, -187500.02235174447, -187500.02235174447, -187500.02235174447, -187500.02235174447, -187500.02235174447, 0.054, 0.008, 0.986, 192.0, 0.0, 0.0, 0.0, 0.0, 0.0, 0.0, 0.0, 0.0, 0.0, 1.70899078409874E9, 0.0, 2024-02-26 18:39:44.098
96.0, -187500.02235174447, -187500.02235174447, 183265.77493736448, -187500.02235174447, -187500.02235174447, -187500.02235174447, -187500.02235174447, -187500.02235174447, 0.054, 0.008, 0.986, 192.0, 0.0, 0.0, 0.0, 0.0, 0.0, 0.0, 0.0, 0.0, 0.0, 1.70899078410173E9, 0.0, 2024-02-26 18:39:44.101
97.0, -187500.02235174447, -187500.02235174447, 183287.97021960857, -187500.02235174447, -187500.02235174447, -187500.02235174447, -187500.02235174447, -187500.02235174447, 0.056, 0.01, 0.98, 192.0, 1.0, 192.0, 0.0, 80.0, 30.0, 160.0, 0.0, 0.0, 0.0, 1.70899078410571E9, 0.0, 2024-02-26 18:39:44.105
98.0, -187500.02235174447, -187500.02235174447, 183332.3831358413, -187500.02235174447, -187500.02235174447, -187500.02235174447, -187500.02235174447, -187500.02235174447, 0.056, 0.01, 0.98, 192.0, 0.0, 0.0, 0.0, 0.0, 0.0, 0.0, 0.0, 0.0, 0.0, 1.708990784109722E9, 0.0, 2024-02-26 18:39:44.109
99.0, -187500.02235174447, -187500.02235174447, 183406.68033441072, -187500.02235174447, -187500.02235174447, -187500.02235174447, -187500.02235174447, -187500.02235174447, 0.056, 0.01, 0.98, 192.0, 0.0, 0.0, 0.0, 0.0, 0.0, 0.0, 0.0, 0.0, 0.0, 1.708990784113712E9, 0.0, 2024-02-26 18:39:44.113
100.0, -187500.02235174447, -187500.02235174447, 183481.73749229164, -187500.02235174447, -187500.02235174447, -187500.02235174447, -187500.02235174447, -187500.02235174447, 0.056, 0.01, 0.98, 192.0, 0.0, 0.0, 0.0, 0.0, 0.0, 0.0, 0.0, 0.0, 0.0, 1.70899078411874E9, 0.0, 2024-02-26 18:39:44.118
101.0, -187500.02235174447, -187500.02235174447, 183558.98512112917, -187500.02235174447, -187500.02235174447, -187500.02235174447, -187500.02235174447, -187500.02235174447, 0.056, 0.01, 0.98, 192.0, 0.0, 0.0, 0.0, 0.0, 0.0, 0.0, 0.0, 0.0, 0.0, 1.708990784122737E9, 0.0, 2024-02-26 18:39:44.122
102.0, -187500.02235174447, -187500.02235174447, 183644.12291575945, -187500.02235174447, -187500.02235174447, -187500.02235174447, -187500.02235174447, -187500.02235174447, 0.056, 0.01, 0.98, 192.0, 0.0, 0.0, 0.0, 0.0, 0.0, 0.0, 0.0, 0.0, 0.0, 1.708990784126731E9, 0.0, 2024-02-26 18:39:44.126
103.0, -187500.02235174447, -187500.02235174447, 183761.87190555, -187500.02235174447, -187500.02235174447, -187500.02235174447, -187500.02235174447, -187500.02235174447, 0.056, 0.01, 0.98, 192.0, 0.0, 0.0, 0.0, 0.0, 0.0, 0.0, 0.0, 0.0, 0.0, 1.708990784129757E9, 0.0, 2024-02-26 18:39:44.129
104.0, -187500.02235174447, -187500.02235174447, 183898.61987812756, -187500.02235174447, -187500.02235174447, -187500.02235174447, -187500.02235174447, -187500.02235174447, 0.056, 0.01, 0.98, 192.0, 0.0, 0.0, 0.0, 0.0, 0.0, 0.0, 0.0, 0.0, 0.0, 1.708990784133756E9, 0.0, 2024-02-26 18:39:44.133
105.0, -187500.02235174447, -187500.02235174447, 184040.1958275075, -187500.02235174447, -187500.02235174447, -187500.02235174447, -187500.02235174447, -187500.02235174447, 0.056, 0.01, 0.98, 192.0, 0.0, 0.0, 0.0, 0.0, 0.0, 0.0, 0.0, 0.0, 0.0, 1.708990784137771E9, 0.0, 2024-02-26 18:39:44.137
106.0, -187500.02235174447, -187500.02235174447, 184187.11384381223, -187500.02235174447, -187500.02235174447, -187500.02235174447, -187500.02235174447, -187500.02235174447, 0.056, 0.01, 0.98, 192.0, 0.0, 0.0, 0.0, 0.0, 0.0, 0.0, 0.0, 0.0, 0.0, 1.70899078414379E9, 0.0, 2024-02-26 18:39:44.143
107.0, -187500.02235174447, -187500.02235174447, 184364.8772674653, -187500.02235174447, -187500.02235174447, -187500.02235174447, -187500.02235174447, -187500.02235174447, 0.058, 0.008, 0.98, 192.0, 1.0, 208.0, 0.0, 64.0, 30.0, 160.0, 0.0, 0.0, 0.0, 1.70899078414678E9, 0.0, 2024-02-26 18:39:44.146
108.0, -187500.02235174447, -187500.02235174447, 184590.42872076377, -187500.02235174447, -187500.02235174447, -187500.02235174447, -187500.02235174447, -187500.02235174447, 0.058, 0.008, 0.98, 192.0, 0.0, 0.0, 0.0, 0.0, 0.0, 0.0, 0.0, 0.0, 0.0, 1.708990784150783E9, 0.0, 2024-02-26 18:39:44.150
109.0, -187500.02235174447, -187500.02235174447, 184836.8343516391, -187500.02235174447, -187500.02235174447, -187500.02235174447, -187500.02235174447, -187500.02235174447, 0.058, 0.008, 0.98, 192.0, 0.0, 0.0, 0.0, 0.0, 0.0, 0.0, 0.0, 0.0, 0.0, 1.708990784154789E9, 0.0, 2024-02-26 18:39:44.154
110.0, -187500.02235174447, -187500.02235174447, 184956.61735017507, -187500.02235174447, -187500.02235174447, -187500.02235174447, -187500.02235174447, -187500.02235174447, 0.058, 0.008, 0.98, 192.0, 0.0, 0.0, 0.0, 0.0, 0.0, 0.0, 0.0, 0.0, 0.0, 1.708990784157819E9, 0.0, 2024-02-26 18:39:44.157
111.0, -187500.02235174447, -187500.02235174447, 185005.29944959874, -187500.02235174447, -187500.02235174447, -187500.02235174447, -187500.02235174447, -187500.02235174447, 0.058, 0.008, 0.98, 192.0, 0.0, 0.0, 0.0, 0.0, 0.0, 0.0, 0.0, 0.0, 0.0, 1.708990784161822E9, 0.0, 2024-02-26 18:39:44.161
112.0, -187500.02235174447, -187500.02235174447, 185051.56756062122, -187500.02235174447, -187500.02235174447, -187500.02235174447, -187500.02235174447, -187500.02235174447, 0.058, 0.008, 0.98, 192.0, 0.0, 0.0, 0.0, 0.0, 0.0, 0.0, 0.0, 0.0, 0.0, 1.708990784165831E9, 0.0, 2024-02-26 18:39:44.165
113.0, -187500.02235174447, -187500.02235174447, 185083.79877612577, -187500.02235174447, -187500.02235174447, -187500.02235174447, -187500.02235174447, -187500.02235174447, 0.058, 0.008, 0.98, 192.0, 0.0, 0.0, 0.0, 0.0, 0.0, 0.0, 0.0, 0.0, 0.0, 1.708990784169852E9, 0.0, 2024-02-26 18:39:44.169
114.0, -187500.02235174447, -187500.02235174447, 185101.90368913457, -187500.02235174447, -187500.02235174447, -187500.02235174447, -187500.02235174447, -187500.02235174447, 0.058, 0.008, 0.98, 192.0, 0.0, 0.0, 0.0, 0.0, 0.0, 0.0, 0.0, 0.0, 0.0, 1.708990784173825E9, 0.0, 2024-02-26 18:39:44.173
115.0, -187500.02235174447, -187500.02235174447, 185121.953203911, -187500.02235174447, -187500.02235174447, -187500.02235174447, -187500.02235174447, -187500.02235174447, 0.058, 0.008, 0.98, 192.0, 0.0, 0.0, 0.0, 0.0, 0.0, 0.0, 0.0, 0.0, 0.0, 1.708990784178846E9, 0.0, 2024-02-26 18:39:44.178
116.0, -187500.02235174447, -187500.02235174447, 185149.78112575784, -187500.02235174447, -187500.02235174447, -187500.02235174447, -187500.02235174447, -187500.02235174447, 0.058, 0.008, 0.98, 192.0, 0.0, 0.0, 0.0, 0.0, 0.0, 0.0, 0.0, 0.0, 0.0, 1.708990784182839E9, 0.0, 2024-02-26 18:39:44.182
117.0, -187500.02235174447, -187500.02235174447, 185167.37194864417, -187500.02235174447, -187500.02235174447, -187500.02235174447, -187500.02235174447, -187500.02235174447, 0.058, 0.008, 0.978, 192.0, 1.0, 208.0, 0.0, 64.0, 30.0, 144.0, 0.0, 0.0, 0.0, 1.708990784185819E9, 0.0, 2024-02-26 18:39:44.185
118.0, -187500.02235174447, -187500.02235174447, 185166.2990649103, -187500.02235174447, -187500.02235174447, -187500.02235174447, -187500.02235174447, -187500.02235174447, 0.058, 0.008, 0.978, 192.0, 0.0, 0.0, 0.0, 0.0, 0.0, 0.0, 0.0, 0.0, 0.0, 1.708990784189817E9, 0.0, 2024-02-26 18:39:44.189
119.0, -187500.02235174447, -187500.02235174447, 185165.18147768755, -187500.02235174447, -187500.02235174447, -187500.02235174447, -187500.02235174447, -187500.02235174447, 0.058, 0.008, 0.978, 192.0, 0.0, 0.0, 0.0, 0.0, 0.0, 0.0, 0.0, 0.0, 0.0, 1.708990784193816E9, 0.0, 2024-02-26 18:39:44.193
120.0, -187500.02235174447, -187500.02235174447, 185174.92683827007, -187500.02235174447, -187500.02235174447, -187500.02235174447, -187500.02235174447, -187500.02235174447, 0.058, 0.008, 0.978, 192.0, 0.0, 0.0, 0.0, 0.0, 0.0, 0.0, 0.0, 0.0, 0.0, 1.708990784197817E9, 0.0, 2024-02-26 18:39:44.197
121.0, -187500.02235174447, -187500.02235174447, 185181.453547651, -187500.02235174447, -187500.02235174447, -187500.02235174447, -187500.02235174447, -187500.02235174447, 0.058, 0.008, 0.978, 192.0, 0.0, 0.0, 0.0, 0.0, 0.0, 0.0, 0.0, 0.0, 0.0, 1.708990784202837E9, 0.0, 2024-02-26 18:39:44.202
122.0, -187500.02235174447, -187500.02235174447, 185172.22227719097, -187500.02235174447, -187500.02235174447, -187500.02235174447, -187500.02235174447, -187500.02235174447, 0.058, 0.008, 0.978, 192.0, 0.0, 0.0, 0.0, 0.0, 0.0, 0.0, 0.0, 0.0, 0.0, 1.708990784206851E9, 0.0, 2024-02-26 18:39:44.206
123.0, -187500.02235174447, -187500.02235174447, 185159.83941076274, -187500.02235174447, -187500.02235174447, -187500.02235174447, -187500.02235174447, -187500.02235174447, 0.058, 0.008, 0.978, 192.0, 0.0, 0.0, 0.0, 0.0, 0.0, 0.0, 0.0, 0.0, 0.0, 1.708990784209834E9, 0.0, 2024-02-26 18:39:44.209
124.0, -187500.02235174447, -187500.02235174447, 185161.76166078588, -187500.02235174447, -187500.02235174447, -187500.02235174447, -187500.02235174447, -187500.02235174447, 0.058, 0.008, 0.978, 192.0, 0.0, 0.0, 0.0, 0.0, 0.0, 0.0, 0.0, 0.0, 0.0, 1.708990784213871E9, 0.0, 2024-02-26 18:39:44.213
125.0, -187500.02235174447, -187500.02235174447, 185158.40889911758, -187500.02235174447, -187500.02235174447, -187500.02235174447, -187500.02235174447, -187500.02235174447, 0.058, 0.008, 0.978, 192.0, 0.0, 0.0, 0.0, 0.0, 0.0, 0.0, 0.0, 0.0, 0.0, 1.70899078421787E9, 0.0, 2024-02-26 18:39:44.217
126.0, -187500.02235174447, -187500.02235174447, 185144.1484861551, -187500.02235174447, -187500.02235174447, -187500.02235174447, -187500.02235174447, -187500.02235174447, 0.058, 0.008, 0.978, 192.0, 0.0, 0.0, 0.0, 0.0, 0.0, 0.0, 0.0, 0.0, 0.0, 1.708990784221866E9, 0.0, 2024-02-26 18:39:44.221
127.0, -187500.02235174447, -187500.02235174447, 185122.37788705563, -187500.02235174447, -187500.02235174447, -187500.02235174447, -187500.02235174447, -187500.02235174447, 0.062, 0.012, 0.984, 192.0, 1.0, 240.0, 0.0, 96.0, 30.0, 192.0, 0.0, 0.0, 0.0, 1.708990784225867E9, 0.0, 2024-02-26 18:39:44.225
128.0, -187500.02235174447, -187500.02235174447, 185124.23308184542, -187500.02235174447, -187500.02235174447, -187500.02235174447, -187500.02235174447, -187500.02235174447, 0.062, 0.012, 0.984, 192.0, 0.0, 0.0, 0.0, 0.0, 0.0, 0.0, 0.0, 0.0, 0.0, 1.708990784231878E9, 0.0, 2024-02-26 18:39:44.231
129.0, -187500.02235174447, -187500.02235174447, 185132.8608552052, -187500.02235174447, -187500.02235174447, -187500.02235174447, -187500.02235174447, -187500.02235174447, 0.062, 0.012, 0.984, 192.0, 0.0, 0.0, 0.0, 0.0, 0.0, 0.0, 0.0, 0.0, 0.0, 1.708990784234874E9, 0.0, 2024-02-26 18:39:44.234
130.0, -187500.02235174447, -187500.02235174447, 185126.71412547995, -187500.02235174447, -187500.02235174447, -187500.02235174447, -187500.02235174447, -187500.02235174447, 0.062, 0.012, 0.984, 192.0, 0.0, 0.0, 0.0, 0.0, 0.0, 0.0, 0.0, 0.0, 0.0, 1.708990784237902E9, 0.0, 2024-02-26 18:39:44.237
131.0, -187500.02235174447, -187500.02235174447, 185108.11747409316, -187500.02235174447, -187500.02235174447, -187500.02235174447, -187500.02235174447, -187500.02235174447, 0.062, 0.012, 0.984, 192.0, 0.0, 0.0, 0.0, 0.0, 0.0, 0.0, 0.0, 0.0, 0.0, 1.70899078424188E9, 0.0, 2024-02-26 18:39:44.241
132.0, -187500.02235174447, -187500.02235174447, 185101.2778402898, -187500.02235174447, -187500.02235174447, -187500.02235174447, -187500.02235174447, -187500.02235174447, 0.062, 0.012, 0.984, 192.0, 0.0, 0.0, 0.0, 0.0, 0.0, 0.0, 0.0, 0.0, 0.0, 1.708990784245916E9, 0.0, 2024-02-26 18:39:44.245
133.0, -187500.02235174447, -187500.02235174447, 185103.3342007797, -187500.02235174447, -187500.02235174447, -187500.02235174447, -187500.02235174447, -187500.02235174447, 0.062, 0.012, 0.984, 192.0, 0.0, 0.0, 0.0, 0.0, 0.0, 0.0, 0.0, 0.0, 0.0, 1.708990784249913E9, 0.0, 2024-02-26 18:39:44.249
134.0, -187500.02235174447, -187500.02235174447, 185102.0825030902, -187500.02235174447, -187500.02235174447, -187500.02235174447, -187500.02235174447, -187500.02235174447, 0.062, 0.012, 0.984, 192.0, 0.0, 0.0, 0.0, 0.0, 0.0, 0.0, 0.0, 0.0, 0.0, 1.708990784253902E9, 0.0, 2024-02-26 18:39:44.253
135.0, -187500.02235174447, -187500.02235174447, 185095.9804768539, -187500.02235174447, -187500.02235174447, -187500.02235174447, -187500.02235174447, -187500.02235174447, 0.062, 0.012, 0.984, 192.0, 0.0, 0.0, 0.0, 0.0, 0.0, 0.0, 0.0, 0.0, 0.0, 1.708990784257912E9, 0.0, 2024-02-26 18:39:44.257
136.0, -187500.02235174447, -187500.02235174447, 185096.3828082541, -187500.02235174447, -187500.02235174447, -187500.02235174447, -187500.02235174447, -187500.02235174447, 0.062, 0.012, 0.984, 192.0, 0.0, 0.0, 0.0, 0.0, 0.0, 0.0, 0.0, 0.0, 0.0, 1.708990784262907E9, 0.0, 2024-02-26 18:39:44.262
137.0, -187500.02235174447, -187500.02235174447, 185108.45275025998, -187500.02235174447, -187500.02235174447, -187500.02235174447, -187500.02235174447, -187500.02235174447, 0.064, 0.012, 0.98, 192.0, 2.0, 0.0, 0.0, 96.0, 30.0, 160.0, 0.0, 0.0, 0.0, 1.708990784265901E9, 0.0, 2024-02-26 18:39:44.265
138.0, -187500.02235174447, -187500.02235174447, 185111.40318052808, -187500.02235174447, -187500.02235174447, -187500.02235174447, -187500.02235174447, -187500.02235174447, 0.064, 0.012, 0.98, 192.0, 0.0, 0.0, 0.0, 0.0, 0.0, 0.0, 0.0, 0.0, 0.0, 1.7089907842689E9, 0.0, 2024-02-26 18:39:44.268
