%OpenBCI Raw EXG Data
%Number of channels = 8
%Sample Rate = 250 Hz
%Board = OpenBCI_GUI$BoardCytonSerial
Sample Index, EXG Channel 0, EXG Channel 1, EXG Channel 2, EXG Channel 3, EXG Channel 4, EXG Channel 5, EXG Channel 6, EXG Channel 7, Accel Channel 0, Accel Channel 1, Accel Channel 2, Other, Other, Other, Other, Other, Other, Other, Analog Channel 0, Analog Channel 1, Analog Channel 2, Timestamp, Other, Timestamp (Formatted)
85.0, 187500.0, 187500.0, 187500.0, -182511.9847073537, 187500.0, 18105.270636710007, -182242.40031747823, -182219.1097997558, 0.0, 0.0, 0.0, 192.0, 0.0, 0.0, 0.0, 0.0, 0.0, 0.0, 0.0, 0.0, 0.0, 1.708991197663684E9, 0.0, 2024-02-26 18:46:37.663
86.0, 187500.0, 187500.0, 187500.0, -182651.9736828773, 187500.0, 19010.85156331677, -182389.22892680514, -182367.90536259479, 0.052000000000000005, 0.012, 0.976, 192.0, 1.0, 160.0, 0.0, 96.0, 30.0, 128.0, 0.0, 0.0, 0.0, 1.708991197663743E9, 0.0, 2024-02-26 18:46:37.663
0.0, 0.0, 0.0, 0.0, 0.0, 0.0, 0.0, 0.0, 0.0, 0.052000000000000005, 0.014, 0.972, 192.0, 1.0, 160.0, 0.0, 112.0, 30.0, 96.0, 0.0, 0.0, 0.0, 1.708991197762501E9, 0.0, 2024-02-26 18:46:37.762
1.0, 187500.0, 187500.0, 187500.0, -181947.6478633461, 187500.0, 19682.47678070984, -181921.58572931122, -181887.6334294836, 0.052000000000000005, 0.014, 0.972, 192.0, 0.0, 0.0, 0.0, 0.0, 0.0, 0.0, 0.0, 0.0, 0.0, 1.708991197775485E9, 0.0, 2024-02-26 18:46:37.775
2.0, 187500.0, 187500.0, 187500.0, -181818.74535307233, 187500.0, 19226.70235952167, -181866.80160365126, -181836.0232515363, 0.052000000000000005, 0.014, 0.972, 192.0, 0.0, 0.0, 0.0, 0.0, 0.0, 0.0, 0.0, 0.0, 0.0, 1.708991197780489E9, 0.0, 2024-02-26 18:46:37.780
3.0, 187500.0, 187500.0, 187500.0, -181867.8297838962, 187500.0, 19544.030075553666, -181906.90063320406, -181884.95122014897, 0.052000000000000005, 0.014, 0.972, 192.0, 0.0, 0.0, 0.0, 0.0, 0.0, 0.0, 0.0, 0.0, 0.0, 1.708991197784484E9, 0.0, 2024-02-26 18:46:37.784
4.0, 187500.0, 187500.0, 187500.0, -182005.27066055188, 187500.0, 20308.325625458434, -182055.6738442986, -182033.94794868803, 0.052000000000000005, 0.014, 0.972, 192.0, 0.0, 0.0, 0.0, 0.0, 0.0, 0.0, 0.0, 0.0, 0.0, 1.708991197788557E9, 0.0, 2024-02-26 18:46:37.788
5.0, 187500.0, 187500.0, 187500.0, -181876.94929563397, 187500.0, 19831.942895882476, -181975.58754391523, -181952.40878491508, 0.052000000000000005, 0.014, 0.972, 192.0, 0.0, 0.0, 0.0, 0.0, 0.0, 0.0, 0.0, 0.0, 0.0, 1.708991197791487E9, 0.0, 2024-02-26 18:46:37.791
6.0, 187500.0, 187500.0, 187500.0, -181614.20453956182, 187500.0, 19199.679100475205, -181841.00769054983, -181820.7570100733, 0.052000000000000005, 0.014, 0.972, 192.0, 0.0, 0.0, 0.0, 0.0, 0.0, 0.0, 0.0, 0.0, 0.0, 1.708991197795575E9, 0.0, 2024-02-26 18:46:37.795
7.0, 187500.0, 187500.0, 187500.0, -181826.34494618714, 187500.0, 19376.012012483123, -181847.15442027504, -181826.50140839833, 0.056, 0.014, 0.976, 192.0, 1.0, 192.0, 0.0, 112.0, 30.0, 128.0, 0.0, 0.0, 0.0, 1.708991197799507E9, 0.0, 2024-02-26 18:46:37.799
8.0, 187500.0, 187500.0, 187500.0, -182380.6011534454, 187500.0, 20193.683528147165, -181978.98500907244, -181958.6002181292, 0.056, 0.014, 0.976, 192.0, 0.0, 0.0, 0.0, 0.0, 0.0, 0.0, 0.0, 0.0, 0.0, 1.708991197803498E9, 0.0, 2024-02-26 18:46:37.803
9.0, 187500.0, 187500.0, 187500.0, -182491.5105094326, 187500.0, 19985.655842501623, -181953.3475581822, -181929.36413638166, 0.056, 0.014, 0.976, 192.0, 0.0, 0.0, 0.0, 0.0, 0.0, 0.0, 0.0, 0.0, 0.0, 1.708991197808509E9, 0.0, 2024-02-26 18:46:37.808
10.0, 187500.0, 187500.0, 187500.0, -182337.01525175755, 187500.0, 19248.27179292104, -181851.31184474373, -181826.38964967604, 0.056, 0.014, 0.976, 192.0, 0.0, 0.0, 0.0, 0.0, 0.0, 0.0, 0.0, 0.0, 0.0, 1.70899119781251E9, 0.0, 2024-02-26 18:46:37.812
11.0, 187500.0, 187500.0, 187500.0, -182317.70334454815, 187500.0, 19263.314516939463, -181831.48584741185, -181818.0748007387, 0.056, 0.014, 0.976, 192.0, 0.0, 0.0, 0.0, 0.0, 0.0, 0.0, 0.0, 0.0, 0.0, 1.708991197816489E9, 0.0, 2024-02-26 18:46:37.816
12.0, 187500.0, 187500.0, 187500.0, -182437.19577040622, 187500.0, 20008.655787546133, -181964.1434507541, -181949.32424418026, 0.056, 0.014, 0.976, 192.0, 0.0, 0.0, 0.0, 0.0, 0.0, 0.0, 0.0, 0.0, 0.0, 1.708991197819493E9, 0.0, 2024-02-26 18:46:37.819
13.0, 187500.0, 187500.0, 187500.0, -182448.572808334, 187500.0, 20060.981221316008, -181989.66914292207, -181974.42525320355, 0.056, 0.014, 0.976, 192.0, 0.0, 0.0, 0.0, 0.0, 0.0, 0.0, 0.0, 0.0, 0.0, 1.708991197823506E9, 0.0, 2024-02-26 18:46:37.823
14.0, 187500.0, 187500.0, 187500.0, -182278.9677714071, 187500.0, 19232.536164824505, -181859.85021112565, -181836.85026608114, 0.056, 0.014, 0.976, 192.0, 0.0, 0.0, 0.0, 0.0, 0.0, 0.0, 0.0, 0.0, 0.0, 1.70899119782751E9, 0.0, 2024-02-26 18:46:37.827
15.0, 187500.0, 187500.0, 187500.0, -182236.3653464753, 187500.0, 19123.839631538347, -181835.15153350253, -181815.4149431485, 0.056, 0.014, 0.976, 192.0, 0.0, 0.0, 0.0, 0.0, 0.0, 0.0, 0.0, 0.0, 0.0, 1.70899119783152E9, 0.0, 2024-02-26 18:46:37.831
16.0, 187500.0, 187500.0, 187500.0, -182336.21058895715, 187500.0, 19779.77392432379, -181942.55166561028, -181923.28446188982, 0.056, 0.014, 0.976, 192.0, 0.0, 0.0, 0.0, 0.0, 0.0, 0.0, 0.0, 0.0, 0.0, 1.708991197836511E9, 0.0, 2024-02-26 18:46:37.836
17.0, 187500.0, 187500.0, 187500.0, -182385.4067785033, 187500.0, 20106.489373027012, -182005.87415765217, -181985.95875334248, 0.06, 0.012, 0.982, 192.0, 1.0, 224.0, 0.0, 96.0, 30.0, 176.0, 0.0, 0.0, 0.0, 1.70899119784051E9, 0.0, 2024-02-26 18:46:37.840
18.0, 187500.0, 187500.0, 187500.0, -182222.507264913, 187500.0, 19290.58364517494, -181880.0785398577, -181859.17965879198, 0.06, 0.012, 0.982, 192.0, 0.0, 0.0, 0.0, 0.0, 0.0, 0.0, 0.0, 0.0, 0.0, 1.708991197844506E9, 0.0, 2024-02-26 18:46:37.844
19.0, 187500.0, 187500.0, 187500.0, -182149.05943263287, 187500.0, 19054.281002793432, -181828.96010028842, -181811.168111702, 0.06, 0.012, 0.982, 192.0, 0.0, 0.0, 0.0, 0.0, 0.0, 0.0, 0.0, 0.0, 0.0, 1.708991197847506E9, 0.0, 2024-02-26 18:46:37.847
20.0, 187500.0, 187500.0, 187500.0, -182232.67730864018, 187500.0, 19598.858904702534, -181917.62947054263, -181900.41862731203, 0.06, 0.012, 0.982, 192.0, 0.0, 0.0, 0.0, 0.0, 0.0, 0.0, 0.0, 0.0, 0.0, 1.708991197851509E9, 0.0, 2024-02-26 18:46:37.851
21.0, 187500.0, 187500.0, 187500.0, -182331.76259181055, 187500.0, 20142.810957766887, -182030.99751841993, -182013.69726821152, 0.06, 0.012, 0.982, 192.0, 0.0, 0.0, 0.0, 0.0, 0.0, 0.0, 0.0, 0.0, 0.0, 1.708991197855548E9, 0.0, 2024-02-26 18:46:37.855
22.0, 187500.0, 187500.0, 187500.0, -182175.36743585675, 187500.0, 19369.239433913164, -181889.3321620622, -181873.9318101325, 0.06, 0.012, 0.982, 192.0, 0.0, 0.0, 0.0, 0.0, 0.0, 0.0, 0.0, 0.0, 0.0, 1.708991197859552E9, 0.0, 2024-02-26 18:46:37.859
23.0, 187500.0, 187500.0, 187500.0, -182088.84383307028, 187500.0, 18980.497894346463, -181823.70744034142, -181807.77064654478, 0.06, 0.012, 0.982, 192.0, 0.0, 0.0, 0.0, 0.0, 0.0, 0.0, 0.0, 0.0, 0.0, 1.708991197864561E9, 0.0, 2024-02-26 18:46:37.864
24.0, 187500.0, 187500.0, 187500.0, -182139.9399208951, 187500.0, 19354.2190616392, -181884.61594398212, -181868.83561239668, 0.06, 0.012, 0.982, 192.0, 0.0, 0.0, 0.0, 0.0, 0.0, 0.0, 0.0, 0.0, 0.0, 1.708991197869533E9, 0.0, 2024-02-26 18:46:37.869
25.0, 187500.0, 187500.0, 187500.0, -182242.2215035226, 187500.0, 20027.788880799875, -182001.02382910537, -181985.26584926437, 0.06, 0.012, 0.982, 192.0, 0.0, 0.0, 0.0, 0.0, 0.0, 0.0, 0.0, 0.0, 0.0, 1.708991197871543E9, 0.0, 2024-02-26 18:46:37.871
26.0, 187500.0, 187500.0, 187500.0, -182123.10905732025, 187500.0, 19392.082916746487, -181916.73540076442, -181896.1270923766, 0.06, 0.012, 0.982, 192.0, 0.0, 0.0, 0.0, 0.0, 0.0, 0.0, 0.0, 0.0, 0.0, 1.70899119787557E9, 0.0, 2024-02-26 18:46:37.875
27.0, 187500.0, 187500.0, 187500.0, -182008.8022361758, 187500.0, 18838.184337399525, -181845.00865280733, -181827.39547817654, 0.056, 0.016, 0.982, 192.0, 1.0, 192.0, 0.0, 128.0, 30.0, 176.0, 0.0, 0.0, 0.0, 1.708991197879557E9, 0.0, 2024-02-26 18:46:37.879
28.0, 187500.0, 187500.0, 187500.0, -182051.73993727445, 187500.0, 19058.3490202843, -181886.85111842767, -181872.45659499845, 0.056, 0.016, 0.982, 192.0, 0.0, 0.0, 0.0, 0.0, 0.0, 0.0, 0.0, 0.0, 0.0, 1.708991197883559E9, 0.0, 2024-02-26 18:46:37.883
29.0, 187500.0, 187500.0, 187500.0, -182196.71335181157, 187500.0, 19799.041128044264, -182045.83907673825, -182031.69042249804, 0.056, 0.016, 0.982, 192.0, 0.0, 0.0, 0.0, 0.0, 0.0, 0.0, 0.0, 0.0, 0.0, 1.708991197889569E9, 0.0, 2024-02-26 18:46:37.889
30.0, 187500.0, 187500.0, 187500.0, -182101.7854931099, 187500.0, 19330.72737821667, -181980.77314862885, -181960.67893036353, 0.056, 0.016, 0.982, 192.0, 0.0, 0.0, 0.0, 0.0, 0.0, 0.0, 0.0, 0.0, 0.0, 1.708991197892553E9, 0.0, 2024-02-26 18:46:37.892
31.0, 187500.0, 187500.0, 187500.0, -181960.701282108, 187500.0, 18651.949602597906, -181886.2252695829, -181860.00667333684, 0.056, 0.016, 0.982, 192.0, 0.0, 0.0, 0.0, 0.0, 0.0, 0.0, 0.0, 0.0, 0.0, 1.70899119789756E9, 0.0, 2024-02-26 18:46:37.897
32.0, 187500.0, 187500.0, 187500.0, -181998.56513721528, 187500.0, 18767.262252242836, -181922.99388921188, -181902.00560116835, 0.056, 0.016, 0.982, 192.0, 0.0, 0.0, 0.0, 0.0, 0.0, 0.0, 0.0, 0.0, 0.0, 1.708991197901555E9, 0.0, 2024-02-26 18:46:37.901
33.0, 187500.0, 187500.0, 187500.0, -182125.92537712163, 187500.0, 19526.282790456153, -182064.50278335845, -182043.33568135925, 0.056, 0.016, 0.982, 192.0, 0.0, 0.0, 0.0, 0.0, 0.0, 0.0, 0.0, 0.0, 0.0, 1.708991197904547E9, 0.0, 2024-02-26 18:46:37.904
34.0, 187500.0, 187500.0, 187500.0, -182092.64362962768, 187500.0, 19370.15585543583, -182042.59807379224, -182020.00046014792, 0.056, 0.016, 0.982, 192.0, 0.0, 0.0, 0.0, 0.0, 0.0, 0.0, 0.0, 0.0, 0.0, 1.70899119790759E9, 0.0, 2024-02-26 18:46:37.907
35.0, 187500.0, 187500.0, 187500.0, -181937.7460405524, 187500.0, 18625.64159937401, -181897.177624366, -181873.59653396567, 0.056, 0.016, 0.982, 192.0, 0.0, 0.0, 0.0, 0.0, 0.0, 0.0, 0.0, 0.0, 0.0, 1.708991197911591E9, 0.0, 2024-02-26 18:46:37.911
36.0, 187500.0, 187500.0, 187500.0, -181922.83742700072, 187500.0, 18699.111783398603, -181893.2884208308, -181869.3273507747, 0.056, 0.016, 0.982, 192.0, 0.0, 0.0, 0.0, 0.0, 0.0, 0.0, 0.0, 0.0, 0.0, 1.708991197915605E9, 0.0, 2024-02-26 18:46:37.915
37.0, 187500.0, 187500.0, 187500.0, -182045.59320754925, 187500.0, 19502.545237844617, -182031.24338760893, -182007.19291057505, 0.058, 0.018000000000000002, 0.982, 192.0, 1.0, 208.0, 0.0, 144.0, 30.0, 176.0, 0.0, 0.0, 0.0, 1.708991197920626E9, 0.0, 2024-02-26 18:46:37.920
38.0, 187500.0, 187500.0, 187500.0, -182064.92746650308, 187500.0, 19653.0395332622, -182063.9216380026, -182040.00527143542, 0.058, 0.018000000000000002, 0.982, 192.0, 0.0, 0.0, 0.0, 0.0, 0.0, 0.0, 0.0, 0.0, 0.0, 1.708991197924612E9, 0.0, 2024-02-26 18:46:37.924
39.0, 187500.0, 187500.0, 187500.0, -181896.19414761, 187500.0, 18838.743131010906, -181905.06779015873, -181879.65385671306, 0.058, 0.018000000000000002, 0.982, 192.0, 0.0, 0.0, 0.0, 0.0, 0.0, 0.0, 0.0, 0.0, 0.0, 1.708991197927585E9, 0.0, 2024-02-26 18:46:37.927
40.0, 187500.0, 187500.0, 187500.0, -181852.96587383343, 187500.0, 18739.56844086271, -181873.99886536587, -181846.1262400301, 0.058, 0.018000000000000002, 0.982, 192.0, 0.0, 0.0, 0.0, 0.0, 0.0, 0.0, 0.0, 0.0, 0.0, 1.708991197931585E9, 0.0, 2024-02-26 18:46:37.931
41.0, 187500.0, 187500.0, 187500.0, -181953.01228201538, 187500.0, 19415.708710635747, -181988.77507314386, -181960.07543326324, 0.058, 0.018000000000000002, 0.982, 192.0, 0.0, 0.0, 0.0, 0.0, 0.0, 0.0, 0.0, 0.0, 0.0, 1.708991197935616E9, 0.0, 2024-02-26 18:46:37.935
42.0, 187500.0, 187500.0, 187500.0, -181987.83629987674, 187500.0, 19859.54730028478, -182046.08494592726, -182016.87121592418, 0.058, 0.018000000000000002, 0.982, 192.0, 0.0, 0.0, 0.0, 0.0, 0.0, 0.0, 0.0, 0.0, 0.0, 1.708991197939649E9, 0.0, 2024-02-26 18:46:37.939
43.0, 187500.0, 187500.0, 187500.0, -181672.45318561236, 187500.0, 19121.425643137176, -181899.189281367, -181875.0717490997, 0.058, 0.018000000000000002, 0.982, 192.0, 0.0, 0.0, 0.0, 0.0, 0.0, 0.0, 0.0, 0.0, 0.0, 1.708991197943638E9, 0.0, 2024-02-26 18:46:37.943
44.0, 187500.0, 187500.0, 187500.0, -181642.25597885324, 187500.0, 18932.911030401116, -181840.85122833864, -181818.27596643878, 0.058, 0.018000000000000002, 0.982, 192.0, 0.0, 0.0, 0.0, 0.0, 0.0, 0.0, 0.0, 0.0, 0.0, 1.708991197948627E9, 0.0, 2024-02-26 18:46:37.948
45.0, 187500.0, 187500.0, 187500.0, -182069.46487062753, 187500.0, 19476.728972998735, -181890.3826940516, -181870.93667637548, 0.058, 0.018000000000000002, 0.982, 192.0, 0.0, 0.0, 0.0, 0.0, 0.0, 0.0, 0.0, 0.0, 0.0, 1.708991197952696E9, 0.0, 2024-02-26 18:46:37.952
46.0, 187500.0, 187500.0, 187500.0, -182517.05855334504, 187500.0, 20085.74695417249, -181995.01120984688, -181976.5039654379, 0.058, 0.018000000000000002, 0.982, 192.0, 0.0, 0.0, 0.0, 0.0, 0.0, 0.0, 0.0, 0.0, 0.0, 1.708991197955657E9, 0.0, 2024-02-26 18:46:37.955
47.0, 187500.0, 187500.0, 187500.0, -182413.83819745044, 187500.0, 19353.1685296498, -181899.65866800054, -181877.4857375009, 0.062, 0.016, 0.976, 192.0, 1.0, 240.0, 0.0, 128.0, 30.0, 128.0, 0.0, 0.0, 0.0, 1.70899119795964E9, 0.0, 2024-02-26 18:46:37.959
48.0, 187500.0, 187500.0, 187500.0, -182307.0862659319, 187500.0, 18923.344483774243, -181847.66851039752, -181826.43435316498, 0.062, 0.016, 0.976, 192.0, 0.0, 0.0, 0.0, 0.0, 0.0, 0.0, 0.0, 0.0, 0.0, 1.708991197963651E9, 0.0, 2024-02-26 18:46:37.963
49.0, 187500.0, 187500.0, 187500.0, -182348.54875189648, 187500.0, 19280.547711914507, -181886.2252695829, -181867.919190874, 0.062, 0.016, 0.976, 192.0, 0.0, 0.0, 0.0, 0.0, 0.0, 0.0, 0.0, 0.0, 0.0, 1.708991197967653E9, 0.0, 2024-02-26 18:46:37.967
50.0, 187500.0, 187500.0, 187500.0, -182476.44543366975, 187500.0, 20027.58771509978, -182028.29295734083, -182009.33867804275, 0.062, 0.016, 0.976, 192.0, 0.0, 0.0, 0.0, 0.0, 0.0, 0.0, 0.0, 0.0, 0.0, 1.708991197971677E9, 0.0, 2024-02-26 18:46:37.971
51.0, 187500.0, 187500.0, 187500.0, -182363.16679277027, 187500.0, 19478.27124336615, -181932.64984281658, -181913.49439781837, 0.062, 0.016, 0.976, 192.0, 0.0, 0.0, 0.0, 0.0, 0.0, 0.0, 0.0, 0.0, 0.0, 1.708991197975641E9, 0.0, 2024-02-26 18:46:37.975
52.0, 187500.0, 187500.0, 187500.0, -182244.009643079, 187500.0, 18943.572812506296, -181856.11746980163, -181837.78903934825, 0.062, 0.016, 0.976, 192.0, 0.0, 0.0, 0.0, 0.0, 0.0, 0.0, 0.0, 0.0, 0.0, 1.708991197980662E9, 0.0, 2024-02-26 18:46:37.980
53.0, 187500.0, 187500.0, 187500.0, -182257.6218554523, 187500.0, 19146.817224838403, -181883.56541199272, -181864.16409780554, 0.062, 0.016, 0.976, 192.0, 0.0, 0.0, 0.0, 0.0, 0.0, 0.0, 0.0, 0.0, 0.0, 1.708991197983695E9, 0.0, 2024-02-26 18:46:37.983
54.0, 187500.0, 187500.0, 187500.0, -182342.31261519346, 187500.0, 19924.14384176062, -181984.707055653, -181964.61283738769, 0.062, 0.016, 0.976, 192.0, 0.0, 0.0, 0.0, 0.0, 0.0, 0.0, 0.0, 0.0, 0.0, 1.708991197987683E9, 0.0, 2024-02-26 18:46:37.987
55.0, 187500.0, 187500.0, 187500.0, -182272.44106202616, 187500.0, 19608.64896877396, -181928.38065962563, -181908.75582799385, 0.062, 0.016, 0.976, 192.0, 0.0, 0.0, 0.0, 0.0, 0.0, 0.0, 0.0, 0.0, 0.0, 1.708991197991691E9, 0.0, 2024-02-26 18:46:37.991
56.0, 187500.0, 187500.0, 187500.0, -182137.79415342739, 187500.0, 18948.691361986563, -181842.14762951704, -181822.38868741854, 0.062, 0.016, 0.976, 192.0, 0.0, 0.0, 0.0, 0.0, 0.0, 0.0, 0.0, 0.0, 0.0, 1.708991197995675E9, 0.0, 2024-02-26 18:46:37.995
57.0, 187500.0, 187500.0, 187500.0, -182130.82040915734, 187500.0, 19058.326668539845, -181853.92699884498, -181831.5752543897, 0.06, 0.016, 0.978, 192.0, 1.0, 224.0, 0.0, 128.0, 30.0, 144.0, 0.0, 0.0, 0.0, 1.708991197999686E9, 0.0, 2024-02-26 18:46:37.999
58.0, 187500.0, 187500.0, 187500.0, -182251.34101526035, 187500.0, 19887.97871923193, -181981.957791085, -181961.52829665283, 0.06, 0.016, 0.978, 192.0, 0.0, 0.0, 0.0, 0.0, 0.0, 0.0, 0.0, 0.0, 0.0, 1.708991198003676E9, 0.0, 2024-02-26 18:46:38.003
59.0, 187500.0, 187500.0, 187500.0, -182219.37802068927, 187500.0, 19910.241056709416, -181976.34750322672, -181949.5924651137, 0.06, 0.016, 0.978, 192.0, 0.0, 0.0, 0.0, 0.0, 0.0, 0.0, 0.0, 0.0, 0.0, 1.708991198007724E9, 0.0, 2024-02-26 18:46:38.007
60.0, 187500.0, 187500.0, 187500.0, -182031.13162888668, 187500.0, 19203.99298715508, -181891.3438190632, -181846.03683305226, 0.06, 0.016, 0.978, 192.0, 0.0, 0.0, 0.0, 0.0, 0.0, 0.0, 0.0, 0.0, 0.0, 1.708991198010691E9, 0.0, 2024-02-26 18:46:38.010
61.0, 187500.0, 187500.0, 187500.0, -181997.46990173697, 187500.0, 19212.37489132582, -181861.3254262597, -181837.00672829233, 0.06, 0.016, 0.978, 192.0, 0.0, 0.0, 0.0, 0.0, 0.0, 0.0, 0.0, 0.0, 0.0, 1.708991198015699E9, 0.0, 2024-02-26 18:46:38.015
62.0, 187500.0, 187500.0, 187500.0, -182102.1431210212, 187500.0, 19938.985400078942, -181969.41846244555, -181944.85389528918, 0.06, 0.016, 0.978, 192.0, 0.0, 0.0, 0.0, 0.0, 0.0, 0.0, 0.0, 0.0, 0.0, 1.708991198019718E9, 0.0, 2024-02-26 18:46:38.019
63.0, 187500.0, 187500.0, 187500.0, -182127.17707481113, 187500.0, 20184.00522279802, -182007.1035035972, -181982.203660274, 0.06, 0.016, 0.978, 192.0, 0.0, 0.0, 0.0, 0.0, 0.0, 0.0, 0.0, 0.0, 0.0, 1.708991198023688E9, 0.0, 2024-02-26 18:46:38.023
64.0, 187500.0, 187500.0, 187500.0, -181963.3611396982, 187500.0, 19439.51331848065, -181866.13105131758, -181840.35948996063, 0.06, 0.016, 0.978, 192.0, 0.0, 0.0, 0.0, 0.0, 0.0, 0.0, 0.0, 0.0, 0.0, 1.708991198027726E9, 0.0, 2024-02-26 18:46:38.027
65.0, 187500.0, 187500.0, 187500.0, -181909.26991811633, 187500.0, 19323.261895568598, -181835.6209201361, -181810.4081523905, 0.06, 0.016, 0.978, 192.0, 0.0, 0.0, 0.0, 0.0, 0.0, 0.0, 0.0, 0.0, 0.0, 1.708991198031733E9, 0.0, 2024-02-26 18:46:38.031
66.0, 187500.0, 187500.0, 187500.0, -182012.28910831086, 187500.0, 19913.45970791098, -181946.2397034454, -181922.07746768923, 0.06, 0.016, 0.978, 192.0, 0.0, 0.0, 0.0, 0.0, 0.0, 0.0, 0.0, 0.0, 0.0, 1.708991198035731E9, 0.0, 2024-02-26 18:46:38.035
67.0, 187500.0, 187500.0, 187500.0, -182101.91960357662, 187500.0, 20304.905808556774, -182049.92944597357, -182025.29782358382, 0.058, 0.016, 0.978, 192.0, 1.0, 208.0, 0.0, 128.0, 30.0, 144.0, 0.0, 0.0, 0.0, 1.708991198038712E9, 0.0, 2024-02-26 18:46:38.038
68.0, 187500.0, 187500.0, 187500.0, -181951.17943897002, 187500.0, 19449.258679063165, -181908.80053148276, -181882.6266387256, 0.058, 0.016, 0.978, 192.0, 0.0, 0.0, 0.0, 0.0, 0.0, 0.0, 0.0, 0.0, 0.0, 1.708991198043744E9, 0.0, 2024-02-26 18:46:38.043
69.0, 187500.0, 187500.0, 187500.0, -181878.64802821257, 187500.0, 19110.093308698335, -181848.33906273116, -181820.9581757734, 0.058, 0.016, 0.978, 192.0, 0.0, 0.0, 0.0, 0.0, 0.0, 0.0, 0.0, 0.0, 0.0, 1.708991198047741E9, 0.0, 2024-02-26 18:46:38.047
70.0, 187500.0, 187500.0, 187500.0, -181957.57203788427, 187500.0, 19562.246747284742, -181941.32231966525, -181913.24852862937, 0.058, 0.016, 0.978, 192.0, 0.0, 0.0, 0.0, 0.0, 0.0, 0.0, 0.0, 0.0, 0.0, 1.708991198051751E9, 0.0, 2024-02-26 18:46:38.051
71.0, 187500.0, 187500.0, 187500.0, -182089.1344057482, 187500.0, 20200.634920672765, -182088.4191499256, -182059.56304783383, 0.058, 0.016, 0.978, 192.0, 0.0, 0.0, 0.0, 0.0, 0.0, 0.0, 0.0, 0.0, 0.0, 1.708991198055746E9, 0.0, 2024-02-26 18:46:38.055
72.0, 187500.0, 187500.0, 187500.0, -181966.8033083443, 187500.0, 19504.534543101137, -181975.94517182652, -181945.16681971157, 0.058, 0.016, 0.978, 192.0, 0.0, 0.0, 0.0, 0.0, 0.0, 0.0, 0.0, 0.0, 0.0, 1.708991198061753E9, 0.0, 2024-02-26 18:46:38.061
73.0, 187500.0, 187500.0, 187500.0, -181844.4275074515, 187500.0, 19051.82231090335, -181863.85117338315, -181834.10100151313, 0.058, 0.016, 0.978, 192.0, 0.0, 0.0, 0.0, 0.0, 0.0, 0.0, 0.0, 0.0, 0.0, 1.708991198064738E9, 0.0, 2024-02-26 18:46:38.064
74.0, 187500.0, 187500.0, 187500.0, -181842.1252777726, 187500.0, 19419.106175792956, -181874.55765897725, -181850.01544356532, 0.058, 0.016, 0.978, 192.0, 0.0, 0.0, 0.0, 0.0, 0.0, 0.0, 0.0, 0.0, 0.0, 1.708991198067745E9, 0.0, 2024-02-26 18:46:38.067
75.0, 187500.0, 187500.0, 187500.0, -181925.7878572688, 187500.0, 20252.088636408884, -181972.57005841375, -181946.6420348456, 0.058, 0.016, 0.978, 192.0, 0.0, 0.0, 0.0, 0.0, 0.0, 0.0, 0.0, 0.0, 0.0, 1.708991198071756E9, 0.0, 2024-02-26 18:46:38.071
76.0, 187500.0, 187500.0, 187500.0, -181753.47825926283, 187500.0, 19876.713440026455, -181928.38065962563, -181890.8744324296, 0.058, 0.016, 0.978, 192.0, 0.0, 0.0, 0.0, 0.0, 0.0, 0.0, 0.0, 0.0, 0.0, 1.708991198075754E9, 0.0, 2024-02-26 18:46:38.075
77.0, 187500.0, 187500.0, 187500.0, -181555.37474815545, 187500.0, 19376.861378772424, -181891.65674348554, -181833.58691139065, 0.056, 0.01, 0.978, 192.0, 1.0, 192.0, 0.0, 80.0, 30.0, 144.0, 0.0, 0.0, 0.0, 1.708991198079754E9, 0.0, 2024-02-26 18:46:38.079
78.0, 187500.0, 187500.0, 187500.0, -181850.19425752095, 187500.0, 19646.870451792533, -181874.9823421219, -181835.8220858362, 0.056, 0.01, 0.978, 192.0, 0.0, 0.0, 0.0, 0.0, 0.0, 0.0, 0.0, 0.0, 0.0, 1.708991198083779E9, 0.0, 2024-02-26 18:46:38.083
79.0, 187500.0, 187500.0, 187500.0, -182398.99663913212, 187500.0, 20481.708107198254, -181998.43102674856, -181958.71197685148, 0.056, 0.01, 0.978, 192.0, 0.0, 0.0, 0.0, 0.0, 0.0, 0.0, 0.0, 0.0, 0.0, 1.708991198087792E9, 0.0, 2024-02-26 18:46:38.087
80.0, 187500.0, 187500.0, 187500.0, -182491.95754432175, 187500.0, 20229.535726253478, -181964.7022443655, -181931.21933117145, 0.056, 0.01, 0.978, 192.0, 0.0, 0.0, 0.0, 0.0, 0.0, 0.0, 0.0, 0.0, 0.0, 1.708991198091781E9, 0.0, 2024-02-26 18:46:38.091
81.0, 187500.0, 187500.0, 187500.0, -182330.91322552125, 187500.0, 19521.81244156509, -181844.82983885167, -181832.8716555681, 0.056, 0.01, 0.978, 192.0, 0.0, 0.0, 0.0, 0.0, 0.0, 0.0, 0.0, 0.0, 0.0, 1.708991198094778E9, 0.0, 2024-02-26 18:46:38.094
82.0, 187500.0, 187500.0, 187500.0, -182318.50800734854, 187500.0, 19611.599399042057, -181845.16511501852, -181832.13404800105, 0.056, 0.01, 0.978, 192.0, 0.0, 0.0, 0.0, 0.0, 0.0, 0.0, 0.0, 0.0, 0.0, 1.708991198098803E9, 0.0, 2024-02-26 18:46:38.098
83.0, 187500.0, 187500.0, 187500.0, -182442.1131541864, 187500.0, 20406.159210939313, -181979.54380268382, -181966.3115699663, 0.056, 0.01, 0.978, 192.0, 0.0, 0.0, 0.0, 0.0, 0.0, 0.0, 0.0, 0.0, 0.0, 1.708991198103804E9, 0.0, 2024-02-26 18:46:38.103
84.0, 187500.0, 187500.0, 187500.0, -182427.62922377937, 187500.0, 20412.37299589789, -181984.43883471953, -181967.8091368448, 0.056, 0.01, 0.978, 192.0, 0.0, 0.0, 0.0, 0.0, 0.0, 0.0, 0.0, 0.0, 0.0, 1.708991198107798E9, 0.0, 2024-02-26 18:46:38.107
85.0, 187500.0, 187500.0, 187500.0, -182250.08931757085, 187500.0, 19607.196105384362, -181859.60434193665, -181831.932882301, 0.056, 0.01, 0.978, 192.0, 0.0, 0.0, 0.0, 0.0, 0.0, 0.0, 0.0, 0.0, 0.0, 1.708991198111811E9, 0.0, 2024-02-26 18:46:38.111
86.0, 187500.0, 187500.0, 187500.0, -182215.6452793652, 187500.0, 19523.310008443597, -181835.73267885836, -181811.99512624682, 0.056, 0.01, 0.978, 192.0, 0.0, 0.0, 0.0, 0.0, 0.0, 0.0, 0.0, 0.0, 0.0, 1.70899119811579E9, 0.0, 2024-02-26 18:46:38.115
87.0, 187500.0, 187500.0, 187500.0, -182321.65960331674, 187500.0, 20165.65444060021, -181952.3417296817, -181928.35830788116, 0.06, 0.01, 0.966, 192.0, 1.0, 224.0, 0.0, 80.0, 30.0, 48.0, 0.0, 0.0, 0.0, 1.708991198119843E9, 0.0, 2024-02-26 18:46:38.119
88.0, 187500.0, 187500.0, 187500.0, -182369.6487986623, 187500.0, 20385.394440340333, -182012.7584949444, -181989.62443943316, 0.06, 0.01, 0.966, 192.0, 0.0, 0.0, 0.0, 0.0, 0.0, 0.0, 0.0, 0.0, 0.0, 1.708991198122841E9, 0.0, 2024-02-26 18:46:38.122
89.0, 187500.0, 187500.0, 187500.0, -182211.510206641, 187500.0, 19508.602560592004, -181869.01442635234, -181850.48483019887, 0.06, 0.01, 0.966, 192.0, 0.0, 0.0, 0.0, 0.0, 0.0, 0.0, 0.0, 0.0, 0.0, 1.70899119812683E9, 0.0, 2024-02-26 18:46:38.126
90.0, 187500.0, 187500.0, 187500.0, -182151.7863454564, 187500.0, 19260.81112156047, -181829.09421075514, -181817.29248968273, 0.06, 0.01, 0.966, 192.0, 0.0, 0.0, 0.0, 0.0, 0.0, 0.0, 0.0, 0.0, 0.0, 1.708991198131835E9, 0.0, 2024-02-26 18:46:38.131
91.0, 187500.0, 187500.0, 187500.0, -182236.94649183113, 187500.0, 19806.417203714514, -181924.67027004604, -181911.66155477305, 0.06, 0.01, 0.966, 192.0, 0.0, 0.0, 0.0, 0.0, 0.0, 0.0, 0.0, 0.0, 0.0, 1.708991198136836E9, 0.0, 2024-02-26 18:46:38.136
92.0, 187500.0, 187500.0, 187500.0, -182315.71403929163, 187500.0, 20301.06130851046, -182019.218149092, -182005.2036053185, 0.06, 0.01, 0.966, 192.0, 0.0, 0.0, 0.0, 0.0, 0.0, 0.0, 0.0, 0.0, 0.0, 1.708991198140852E9, 0.0, 2024-02-26 18:46:38.140
93.0, 187500.0, 187500.0, 187500.0, -182160.3470635828, 187500.0, 19539.425616195873, -181898.85400520015, -181877.03870261178, 0.06, 0.01, 0.966, 192.0, 0.0, 0.0, 0.0, 0.0, 0.0, 0.0, 0.0, 0.0, 0.0, 1.708991198143829E9, 0.0, 2024-02-26 18:46:38.143
94.0, 187500.0, 187500.0, 187500.0, -182052.9245797306, 187500.0, 19216.107632649855, -181842.9746440619, -181821.919300785, 0.06, 0.01, 0.966, 192.0, 0.0, 0.0, 0.0, 0.0, 0.0, 0.0, 0.0, 0.0, 0.0, 1.708991198146873E9, 0.0, 2024-02-26 18:46:38.146
95.0, 187500.0, 187500.0, 187500.0, -182111.59790892576, 187500.0, 19692.982100603833, -181898.31756333323, -181883.05132187027, 0.06, 0.01, 0.966, 192.0, 0.0, 0.0, 0.0, 0.0, 0.0, 0.0, 0.0, 0.0, 0.0, 1.708991198150865E9, 0.0, 2024-02-26 18:46:38.150
96.0, 187500.0, 187500.0, 187500.0, -182220.13798000076, 187500.0, 20418.22915294518, -182021.5650822598, -182005.42712276307, 0.056, 0.018000000000000002, 0.968, 192.0, 1.0, 192.0, 0.0, 144.0, 30.0, 64.0, 0.0, 0.0, 0.0, 1.708991198154857E9, 0.0, 2024-02-26 18:46:38.154
97.0, 187500.0, 187500.0, 187500.0, -182049.59416980675, 187500.0, 19807.333625237185, -181908.75582799385, -181881.03966486928, 0.056, 0.018000000000000002, 0.968, 192.0, 0.0, 0.0, 0.0, 0.0, 0.0, 0.0, 0.0, 0.0, 0.0, 1.70899119815986E9, 0.0, 2024-02-26 18:46:38.159
98.0, 187500.0, 187500.0, 187500.0, -181905.7830459813, 187500.0, 19390.36183242343, -181859.0231965808, -181830.74823984483, 0.056, 0.018000000000000002, 0.968, 192.0, 0.0, 0.0, 0.0, 0.0, 0.0, 0.0, 0.0, 0.0, 0.0, 1.708991198163859E9, 0.0, 2024-02-26 18:46:38.163
99.0, 187500.0, 187500.0, 187500.0, -181913.60615654066, 187500.0, 19752.169519921485, -181852.69765289995, -181836.89496957004, 0.056, 0.018000000000000002, 0.968, 192.0, 0.0, 0.0, 0.0, 0.0, 0.0, 0.0, 0.0, 0.0, 0.0, 1.708991198167857E9, 0.0, 2024-02-26 18:46:38.167
100.0, 187500.0, 187500.0, 187500.0, -182048.90126572864, 187500.0, 20617.65141697543, -181998.98982035994, -181983.29889575232, 0.056, 0.018000000000000002, 0.968, 192.0, 0.0, 0.0, 0.0, 0.0, 0.0, 0.0, 0.0, 0.0, 0.0, 1.708991198170863E9, 0.0, 2024-02-26 18:46:38.170
101.0, 187500.0, 187500.0, 187500.0, -181961.08126176373, 187500.0, 20216.05762434693, -181937.72368880795, -181918.54589206527, 0.056, 0.018000000000000002, 0.968, 192.0, 0.0, 0.0, 0.0, 0.0, 0.0, 0.0, 0.0, 0.0, 0.0, 1.70899119817487E9, 0.0, 2024-02-26 18:46:38.174
102.0, 187500.0, 187500.0, 187500.0, -181803.8143877762, 187500.0, 19628.653780061457, -181841.3206149722, -181816.89015828256, 0.056, 0.018000000000000002, 0.968, 192.0, 0.0, 0.0, 0.0, 0.0, 0.0, 0.0, 0.0, 0.0, 0.0, 1.708991198178927E9, 0.0, 2024-02-26 18:46:38.178
103.0, 187500.0, 187500.0, 187500.0, -181814.67733558148, 187500.0, 19827.07021559122, -181852.60824592214, -181832.49167591234, 0.056, 0.018000000000000002, 0.968, 192.0, 0.0, 0.0, 0.0, 0.0, 0.0, 0.0, 0.0, 0.0, 0.0, 1.708991198182868E9, 0.0, 2024-02-26 18:46:38.182
104.0, 187500.0, 187500.0, 187500.0, -181937.85779927467, 187500.0, 20637.969152685306, -181987.05398882081, -181968.0550060338, 0.056, 0.018000000000000002, 0.968, 192.0, 0.0, 0.0, 0.0, 0.0, 0.0, 0.0, 0.0, 0.0, 0.0, 1.708991198187877E9, 0.0, 2024-02-26 18:46:38.187
105.0, 187500.0, 187500.0, 187500.0, -181863.94058036097, 187500.0, 20444.71597012472, -181959.51663965188, -181938.86362777516, 0.056, 0.018000000000000002, 0.968, 192.0, 0.0, 0.0, 0.0, 0.0, 0.0, 0.0, 0.0, 0.0, 0.0, 1.708991198191921E9, 0.0, 2024-02-26 18:46:38.191
106.0, 187500.0, 187500.0, 187500.0, -181571.51270765217, 187500.0, 19713.0539671247, -181853.47996395588, -181824.7132688419, 0.058, 0.016, 0.974, 192.0, 1.0, 208.0, 0.0, 128.0, 30.0, 112.0, 0.0, 0.0, 0.0, 1.708991198195909E9, 0.0, 2024-02-26 18:46:38.195
107.0, 187500.0, 187500.0, 187500.0, -181725.13624729353, 187500.0, 19755.835206012154, -181832.13404800105, -181803.92614649847, 0.058, 0.016, 0.974, 192.0, 0.0, 0.0, 0.0, 0.0, 0.0, 0.0, 0.0, 0.0, 0.0, 1.708991198198904E9, 0.0, 2024-02-26 18:46:38.198
108.0, 187500.0, 187500.0, 187500.0, -182269.46828001362, 187500.0, 20514.72163375874, -181953.68283434902, -181928.87239800364, 0.058, 0.016, 0.974, 192.0, 0.0, 0.0, 0.0, 0.0, 0.0, 0.0, 0.0, 0.0, 0.0, 1.708991198202903E9, 0.0, 2024-02-26 18:46:38.202
109.0, 187500.0, 187500.0, 187500.0, -182508.0284485851, 187500.0, 20561.950869792803, -181974.06762529226, -181949.6371686026, 0.058, 0.016, 0.974, 192.0, 0.0, 0.0, 0.0, 0.0, 0.0, 0.0, 0.0, 0.0, 0.0, 1.708991198206904E9, 0.0, 2024-02-26 18:46:38.206
110.0, 187500.0, 187500.0, 187500.0, -182349.5322286525, 187500.0, 19742.982952950355, -181829.7200595999, -181814.18559720347, 0.058, 0.016, 0.974, 192.0, 0.0, 0.0, 0.0, 0.0, 0.0, 0.0, 0.0, 0.0, 0.0, 1.708991198210901E9, 0.0, 2024-02-26 18:46:38.210
111.0, 187500.0, 187500.0, 187500.0, -182319.0891527044, 187500.0, 19635.895745264977, -181812.64332683606, -181797.17591967297, 0.058, 0.016, 0.974, 192.0, 0.0, 0.0, 0.0, 0.0, 0.0, 0.0, 0.0, 0.0, 0.0, 1.708991198215903E9, 0.0, 2024-02-26 18:46:38.215
112.0, 187500.0, 187500.0, 187500.0, -182423.8517789664, 187500.0, 20285.48214262511, -181931.10757244917, -181914.23200538542, 0.058, 0.016, 0.974, 192.0, 0.0, 0.0, 0.0, 0.0, 0.0, 0.0, 0.0, 0.0, 0.0, 1.708991198219904E9, 0.0, 2024-02-26 18:46:38.219
113.0, 187500.0, 187500.0, 187500.0, -182469.20346846624, 187500.0, 20609.26951280469, -181995.41354124708, -181975.43108170404, 0.058, 0.016, 0.974, 192.0, 0.0, 0.0, 0.0, 0.0, 0.0, 0.0, 0.0, 0.0, 0.0, 1.708991198223906E9, 0.0, 2024-02-26 18:46:38.223
114.0, 187500.0, 187500.0, 187500.0, -182259.18647756416, 187500.0, 19781.696174346947, -181892.9307929195, -181842.25938823933, 0.058, 0.016, 0.974, 192.0, 0.0, 0.0, 0.0, 0.0, 0.0, 0.0, 0.0, 0.0, 0.0, 1.708991198226915E9, 0.0, 2024-02-26 18:46:38.226
115.0, 187500.0, 187500.0, 187500.0, -182179.88248823673, 187500.0, 19598.858904702534, -181869.50616473035, -181830.1223910001, 0.058, 0.016, 0.974, 192.0, 0.0, 0.0, 0.0, 0.0, 0.0, 0.0, 0.0, 0.0, 0.0, 1.708991198230913E9, 0.0, 2024-02-26 18:46:38.230
116.0, 187500.0, 187500.0, 187500.0, -182287.1261581333, 187500.0, 20189.28023448947, -181961.5059449084, -181931.82282827175, 0.062, 0.014, 0.978, 192.0, 1.0, 240.0, 0.0, 112.0, 30.0, 144.0, 0.0, 0.0, 0.0, 1.708991198234956E9, 0.0, 2024-02-26 18:46:38.234
117.0, 187500.0, 187500.0, 187500.0, -182365.11139453787, 187500.0, 20752.566546507664, -182054.28803614236, -182023.7555532164, 0.062, 0.014, 0.978, 192.0, 0.0, 0.0, 0.0, 0.0, 0.0, 0.0, 0.0, 0.0, 0.0, 1.708991198238956E9, 0.0, 2024-02-26 18:46:38.238
118.0, 187500.0, 187500.0, 187500.0, -182222.64137537975, 187500.0, 20050.16297699964, -181921.63043280013, -181888.81807193972, 0.062, 0.014, 0.978, 192.0, 0.0, 0.0, 0.0, 0.0, 0.0, 0.0, 0.0, 0.0, 0.0, 1.708991198242952E9, 0.0, 2024-02-26 18:46:38.242
119.0, 187500.0, 187500.0, 187500.0, -182128.04879284487, 187500.0, 19703.37566177555, -181837.05143178123, -181802.67444880898, 0.062, 0.014, 0.978, 192.0, 0.0, 0.0, 0.0, 0.0, 0.0, 0.0, 0.0, 0.0, 0.0, 1.70899119824794E9, 0.0, 2024-02-26 18:46:38.247
120.0, 187500.0, 187500.0, 187500.0, -182162.98456942852, 187500.0, 20112.79256496341, -181885.1747375935, -181850.30601624324, 0.062, 0.014, 0.978, 192.0, 0.0, 0.0, 0.0, 0.0, 0.0, 0.0, 0.0, 0.0, 0.0, 1.708991198251952E9, 0.0, 2024-02-26 18:46:38.251
121.0, 187500.0, 187500.0, 187500.0, -182259.23118105307, 187500.0, 20825.544992154242, -181996.08409358075, -181961.9082763086, 0.062, 0.014, 0.978, 192.0, 0.0, 0.0, 0.0, 0.0, 0.0, 0.0, 0.0, 0.0, 0.0, 1.708991198254961E9, 0.0, 2024-02-26 18:46:38.254
122.0, 187500.0, 187500.0, 187500.0, -182140.09638310628, 187500.0, 20233.559040255434, -181898.20580461095, -181871.4284147535, 0.062, 0.014, 0.978, 192.0, 0.0, 0.0, 0.0, 0.0, 0.0, 0.0, 0.0, 0.0, 0.0, 1.70899119825896E9, 0.0, 2024-02-26 18:46:38.258
123.0, 187500.0, 187500.0, 187500.0, -182019.3075560698, 187500.0, 19710.81879267917, -181818.4100769055, -181801.46745460838, 0.062, 0.014, 0.978, 192.0, 0.0, 0.0, 0.0, 0.0, 0.0, 0.0, 0.0, 0.0, 0.0, 1.708991198262973E9, 0.0, 2024-02-26 18:46:38.262
124.0, 187500.0, 187500.0, 187500.0, -182044.78854474885, 187500.0, 19954.475158986468, -181847.78026911977, -181829.5635973887, 0.062, 0.014, 0.978, 192.0, 0.0, 0.0, 0.0, 0.0, 0.0, 0.0, 0.0, 0.0, 0.0, 1.708991198266979E9, 0.0, 2024-02-26 18:46:38.266
125.0, 187500.0, 187500.0, 187500.0, -182173.0428544334, 187500.0, 20715.86498211205, -181990.18323304455, -181971.5642299133, 0.062, 0.014, 0.978, 192.0, 0.0, 0.0, 0.0, 0.0, 0.0, 0.0, 0.0, 0.0, 0.0, 1.708991198271004E9, 0.0, 2024-02-26 18:46:38.271
126.0, 187500.0, 187500.0, 187500.0, -182089.69319935958, 187500.0, 20300.30134919898, -181931.82282827175, -181909.7840082388, 0.058, 0.016, 0.98, 192.0, 1.0, 208.0, 0.0, 128.0, 30.0, 160.0, 0.0, 0.0, 0.0, 1.708991198276019E9, 0.0, 2024-02-26 18:46:38.276
127.0, 187500.0, 187500.0, 187500.0, -181929.49824684838, 187500.0, 19621.769442769222, -181844.6733766405, -181820.73465832887, 0.058, 0.016, 0.98, 192.0, 0.0, 0.0, 0.0, 0.0, 0.0, 0.0, 0.0, 0.0, 0.0, 1.708991198280051E9, 0.0, 2024-02-26 18:46:38.280
128.0, 187500.0, 187500.0, 187500.0, -181950.3971279141, 187500.0, 19752.415389110494, -181867.15923156255, -181851.46830695492, 0.058, 0.016, 0.98, 192.0, 0.0, 0.0, 0.0, 0.0, 0.0, 0.0, 0.0, 0.0, 0.0, 1.708991198283042E9, 0.0, 2024-02-26 18:46:38.283
129.0, 187500.0, 187500.0, 187500.0, -182101.60667915424, 187500.0, 20526.366892619957, -182028.5611782743, -182013.63021297817, 0.058, 0.016, 0.98, 192.0, 0.0, 0.0, 0.0, 0.0, 0.0, 0.0, 0.0, 0.0, 0.0, 1.708991198287012E9, 0.0, 2024-02-26 18:46:38.287
130.0, 187500.0, 187500.0, 187500.0, -182071.43182413958, 187500.0, 20357.186538837737, -182010.52332049888, -181995.32413426926, 0.058, 0.016, 0.98, 192.0, 0.0, 0.0, 0.0, 0.0, 0.0, 0.0, 0.0, 0.0, 0.0, 1.70899119829101E9, 0.0, 2024-02-26 18:46:38.291
131.0, 187500.0, 187500.0, 187500.0, -181889.2427550844, 187500.0, 19551.54026169065, -181851.22243776591, -181829.40713517752, 0.058, 0.016, 0.98, 192.0, 0.0, 0.0, 0.0, 0.0, 0.0, 0.0, 0.0, 0.0, 0.0, 1.708991198297007E9, 0.0, 2024-02-26 18:46:38.297
132.0, 187500.0, 187500.0, 187500.0, -181836.73850735885, 187500.0, 19506.702662313302, -181824.2215304639, -181797.62295456207, 0.058, 0.016, 0.98, 192.0, 0.0, 0.0, 0.0, 0.0, 0.0, 0.0, 0.0, 0.0, 0.0, 1.708991198300003E9, 0.0, 2024-02-26 18:46:38.300
133.0, 187500.0, 187500.0, 187500.0, -181944.4962673779, 187500.0, 20231.726197210097, -181940.56236035377, -181917.40595309806, 0.058, 0.016, 0.98, 192.0, 0.0, 0.0, 0.0, 0.0, 0.0, 0.0, 0.0, 0.0, 0.0, 1.708991198304061E9, 0.0, 2024-02-26 18:46:38.304
134.0, 187500.0, 187500.0, 187500.0, -181958.30964545129, 187500.0, 20370.619937255375, -181985.66818066456, -181960.16484024108, 0.058, 0.016, 0.98, 192.0, 0.0, 0.0, 0.0, 0.0, 0.0, 0.0, 0.0, 0.0, 0.0, 1.708991198307034E9, 0.0, 2024-02-26 18:46:38.307
135.0, 187500.0, 187500.0, 187500.0, -181651.77782199119, 187500.0, 19556.614107682002, -181856.78802213527, -181821.60637636262, 0.058, 0.016, 0.98, 192.0, 0.0, 0.0, 0.0, 0.0, 0.0, 0.0, 0.0, 0.0, 0.0, 1.708991198310034E9, 0.0, 2024-02-26 18:46:38.310
136.0, 187500.0, 187500.0, 187500.0, -181716.15084602247, 187500.0, 19450.57743198603, -181810.89989076852, -181787.34115211264, 0.058, 0.016, 0.972, 192.0, 1.0, 208.0, 0.0, 128.0, 30.0, 96.0, 0.0, 0.0, 0.0, 1.708991198315052E9, 0.0, 2024-02-26 18:46:38.315
137.0, 187500.0, 187500.0, 187500.0, -182214.97472703157, 187500.0, 20085.903416383677, -181903.92785119152, -181882.31371430322, 0.058, 0.016, 0.972, 192.0, 0.0, 0.0, 0.0, 0.0, 0.0, 0.0, 0.0, 0.0, 0.0, 1.708991198319038E9, 0.0, 2024-02-26 18:46:38.319
138.0, 187500.0, 187500.0, 187500.0, -182544.81941995854, 187500.0, 20464.318450012022, -181982.06954980726, -181957.9967210289, 0.058, 0.016, 0.972, 192.0, 0.0, 0.0, 0.0, 0.0, 0.0, 0.0, 0.0, 0.0, 0.0, 1.708991198323046E9, 0.0, 2024-02-26 18:46:38.323
139.0, 187500.0, 187500.0, 187500.0, -182390.1006448389, 187500.0, 19641.215460445343, -181861.14661230406, -181837.85609458163, 0.058, 0.016, 0.972, 192.0, 0.0, 0.0, 0.0, 0.0, 0.0, 0.0, 0.0, 0.0, 0.0, 1.708991198327041E9, 0.0, 2024-02-26 18:46:38.327
140.0, 187500.0, 187500.0, 187500.0, -182313.36710612383, 187500.0, 19354.464930828206, -181808.3070884117, -181793.93491672695, 0.058, 0.016, 0.972, 192.0, 0.0, 0.0, 0.0, 0.0, 0.0, 0.0, 0.0, 0.0, 0.0, 1.708991198332035E9, 0.0, 2024-02-26 18:46:38.332
141.0, 187500.0, 187500.0, 187500.0, -182397.11909259786, 187500.0, 19823.292770778273, -181897.02116215482, -181882.76074919233, 0.058, 0.016, 0.972, 192.0, 0.0, 0.0, 0.0, 0.0, 0.0, 0.0, 0.0, 0.0, 0.0, 1.708991198335039E9, 0.0, 2024-02-26 18:46:38.335
142.0, 187500.0, 187500.0, 187500.0, -182502.4852159602, 187500.0, 20370.016440155083, -182017.7205822135, -182002.92372738407, 0.058, 0.016, 0.972, 192.0, 0.0, 0.0, 0.0, 0.0, 0.0, 0.0, 0.0, 0.0, 0.0, 1.708991198339034E9, 0.0, 2024-02-26 18:46:38.339
143.0, 187500.0, 187500.0, 187500.0, -182358.31646422346, 187500.0, 19605.49737280576, -181887.29815331678, -181870.1320135751, 0.058, 0.016, 0.972, 192.0, 0.0, 0.0, 0.0, 0.0, 0.0, 0.0, 0.0, 0.0, 0.0, 1.708991198343032E9, 0.0, 2024-02-26 18:46:38.343
144.0, 187500.0, 187500.0, 187500.0, -182259.29823628644, 187500.0, 19154.953259820137, -181808.32944015617, -181786.64824803453, 0.058, 0.016, 0.972, 192.0, 0.0, 0.0, 0.0, 0.0, 0.0, 0.0, 0.0, 0.0, 0.0, 1.708991198347035E9, 0.0, 2024-02-26 18:46:38.347
145.0, 187500.0, 187500.0, 187500.0, -182308.40501885474, 187500.0, 19482.47337132375, -181867.80743215175, -181847.69086214196, 0.058, 0.016, 0.972, 192.0, 0.0, 0.0, 0.0, 0.0, 0.0, 0.0, 0.0, 0.0, 0.0, 1.708991198351047E9, 0.0, 2024-02-26 18:46:38.351
146.0, 187500.0, 187500.0, 187500.0, -182432.0101656926, 187500.0, 20177.79143783944, -182006.14237858565, -181985.31055275328, 0.056, 0.01, 0.978, 192.0, 1.0, 192.0, 0.0, 80.0, 30.0, 144.0, 0.0, 0.0, 0.0, 1.708991198355074E9, 0.0, 2024-02-26 18:46:38.355
147.0, 187500.0, 187500.0, 187500.0, -182335.85296104586, 187500.0, 19599.7753262252, -181932.15810443857, -181907.68294426, 0.056, 0.01, 0.978, 192.0, 0.0, 0.0, 0.0, 0.0, 0.0, 0.0, 0.0, 0.0, 0.0, 1.708991198360084E9, 0.0, 2024-02-26 18:46:38.360
148.0, 187500.0, 187500.0, 187500.0, -182215.82409332087, 187500.0, 19021.96038031106, -181853.99405407836, -181825.49557989783, 0.056, 0.01, 0.978, 192.0, 0.0, 0.0, 0.0, 0.0, 0.0, 0.0, 0.0, 0.0, 0.0, 1.708991198363074E9, 0.0, 2024-02-26 18:46:38.363
149.0, 187500.0, 187500.0, 187500.0, -182252.43625073865, 187500.0, 19230.23393514561, -181894.89774643158, -181870.04260659727, 0.056, 0.01, 0.978, 192.0, 0.0, 0.0, 0.0, 0.0, 0.0, 0.0, 0.0, 0.0, 0.0, 1.708991198367089E9, 0.0, 2024-02-26 18:46:38.367
150.0, 187500.0, 187500.0, 187500.0, -182386.41260700376, 187500.0, 20022.357406897238, -182043.76036450392, -182018.54759675832, 0.056, 0.01, 0.978, 192.0, 0.0, 0.0, 0.0, 0.0, 0.0, 0.0, 0.0, 0.0, 0.0, 1.708991198371083E9, 0.0, 2024-02-26 18:46:38.371
151.0, 187500.0, 187500.0, 187500.0, -182320.02792597152, 187500.0, 19708.538914744728, -181988.43979697704, -181962.2435524754, 0.056, 0.01, 0.978, 192.0, 0.0, 0.0, 0.0, 0.0, 0.0, 0.0, 0.0, 0.0, 0.0, 1.70899119837509E9, 0.0, 2024-02-26 18:46:38.375
152.0, 187500.0, 187500.0, 187500.0, -182174.495717823, 187500.0, 19074.263462336476, -181852.07180405522, -181824.69091709744, 0.056, 0.01, 0.978, 192.0, 0.0, 0.0, 0.0, 0.0, 0.0, 0.0, 0.0, 0.0, 0.0, 1.708991198379101E9, 0.0, 2024-02-26 18:46:38.379
153.0, 187500.0, 187500.0, 187500.0, -182167.0972904083, 187500.0, 19223.930743209214, -181857.86090586914, -181828.8259898217, 0.056, 0.01, 0.978, 192.0, 0.0, 0.0, 0.0, 0.0, 0.0, 0.0, 0.0, 0.0, 0.0, 1.708991198383094E9, 0.0, 2024-02-26 18:46:38.383
154.0, 187500.0, 187500.0, 187500.0, -182281.29235283047, 187500.0, 20064.11046553975, -181987.59043068773, -181958.6002181292, 0.056, 0.01, 0.978, 192.0, 0.0, 0.0, 0.0, 0.0, 0.0, 0.0, 0.0, 0.0, 0.0, 1.708991198387085E9, 0.0, 2024-02-26 18:46:38.387
155.0, 187500.0, 187500.0, 187500.0, -182237.0582505534, 187500.0, 20048.82187233232, -181969.7537386124, -181934.6391480731, 0.056, 0.01, 0.978, 192.0, 0.0, 0.0, 0.0, 0.0, 0.0, 0.0, 0.0, 0.0, 0.0, 1.70899119839111E9, 0.0, 2024-02-26 18:46:38.391
156.0, 187500.0, 187500.0, 187500.0, -182035.55727428882, 187500.0, 19321.29494205653, -181860.23019078138, -181820.5111408843, 0.06, 0.016, 0.98, 192.0, 1.0, 224.0, 0.0, 128.0, 30.0, 160.0, 0.0, 0.0, 0.0, 1.708991198394095E9, 0.0, 2024-02-26 18:46:38.394
157.0, 187500.0, 187500.0, 187500.0, -181991.97137260096, 187500.0, 19332.15788986181, -181817.44895189392, -181804.88727151006, 0.06, 0.016, 0.98, 192.0, 0.0, 0.0, 0.0, 0.0, 0.0, 0.0, 0.0, 0.0, 0.0, 1.708991198399109E9, 0.0, 2024-02-26 18:46:38.399
158.0, 187500.0, 187500.0, 187500.0, -182096.6892953741, 187500.0, 20055.616802646735, -181928.44771485898, -181913.31558386274, 0.06, 0.016, 0.98, 192.0, 0.0, 0.0, 0.0, 0.0, 0.0, 0.0, 0.0, 0.0, 0.0, 1.708991198403106E9, 0.0, 2024-02-26 18:46:38.403
159.0, 187500.0, 187500.0, 187500.0, -182127.48999923348, 187500.0, 20250.322848596912, -181972.4135962026, -181955.69449135, 0.06, 0.016, 0.98, 192.0, 0.0, 0.0, 0.0, 0.0, 0.0, 0.0, 0.0, 0.0, 0.0, 1.708991198407138E9, 0.0, 2024-02-26 18:46:38.407
160.0, 187500.0, 187500.0, 187500.0, -181966.37862519964, 187500.0, 19403.862286074436, -181837.4761149259, -181817.89598678303, 0.06, 0.016, 0.98, 192.0, 0.0, 0.0, 0.0, 0.0, 0.0, 0.0, 0.0, 0.0, 0.0, 1.708991198411135E9, 0.0, 2024-02-26 18:46:38.411
161.0, 187500.0, 187500.0, 187500.0, -181919.10468567666, 187500.0, 19191.65482421575, -181809.58113784567, -181791.92325972597, 0.06, 0.016, 0.98, 192.0, 0.0, 0.0, 0.0, 0.0, 0.0, 0.0, 0.0, 0.0, 0.0, 1.708991198415152E9, 0.0, 2024-02-26 18:46:38.415
162.0, 187500.0, 187500.0, 187500.0, -182024.20258810552, 187500.0, 19734.601048779616, -181925.29611889078, -181907.50413030435, 0.06, 0.016, 0.98, 192.0, 0.0, 0.0, 0.0, 0.0, 0.0, 0.0, 0.0, 0.0, 0.0, 1.708991198419137E9, 0.0, 2024-02-26 18:46:38.419
163.0, 187500.0, 187500.0, 187500.0, -182119.91275786315, 187500.0, 20115.541829531412, -182034.95377718852, -182016.6029949907, 0.06, 0.016, 0.98, 192.0, 0.0, 0.0, 0.0, 0.0, 0.0, 0.0, 0.0, 0.0, 0.0, 1.708991198423144E9, 0.0, 2024-02-26 18:46:38.423
164.0, 187500.0, 187500.0, 187500.0, -181986.15991904258, 187500.0, 19250.90929876677, -181911.8850722176, -181891.72379871891, 0.06, 0.016, 0.98, 192.0, 0.0, 0.0, 0.0, 0.0, 0.0, 0.0, 0.0, 0.0, 0.0, 1.708991198427142E9, 0.0, 2024-02-26 18:46:38.427
165.0, 187500.0, 187500.0, 187500.0, -181921.04928744427, 187500.0, 18890.46506768049, -181858.28558901377, -181837.0290800368, 0.06, 0.016, 0.98, 192.0, 0.0, 0.0, 0.0, 0.0, 0.0, 0.0, 0.0, 0.0, 0.0, 1.70899119843114E9, 0.0, 2024-02-26 18:46:38.431
166.0, 187500.0, 187500.0, 187500.0, -182002.23082330596, 187500.0, 19371.116980447412, -181954.06281400478, -181932.42632537204, 0.064, 0.016, 0.976, 192.0, 2.0, 0.0, 0.0, 128.0, 30.0, 128.0, 0.0, 0.0, 0.0, 1.708991198435151E9, 0.0, 2024-02-26 18:46:38.435
167.0, 187500.0, 187500.0, 187500.0, -182117.49876946196, 187500.0, 20019.76460454042, -182083.54646963437, -182062.71464380203, 0.064, 0.016, 0.976, 192.0, 0.0, 0.0, 0.0, 0.0, 0.0, 0.0, 0.0, 0.0, 0.0, 1.708991198439137E9, 0.0, 2024-02-26 18:46:38.439
168.0, 187500.0, 187500.0, 187500.0, -181983.03067481885, 187500.0, 19340.472738799184, -181958.51081115138, -181936.31552890726, 0.064, 0.016, 0.976, 192.0, 0.0, 0.0, 0.0, 0.0, 0.0, 0.0, 0.0, 0.0, 0.0, 1.708991198443146E9, 0.0, 2024-02-26 18:46:38.443
169.0, 187500.0, 187500.0, 187500.0, -181882.06784511422, 187500.0, 18903.965521331495, -181867.96389436294, -181843.53343767326, 0.064, 0.016, 0.976, 192.0, 0.0, 0.0, 0.0, 0.0, 0.0, 0.0, 0.0, 0.0, 0.0, 1.708991198446137E9, 0.0, 2024-02-26 18:46:38.446
170.0, 187500.0, 187500.0, 187500.0, -181897.2446795994, 187500.0, 19250.685781322216, -181896.75294122135, -181870.53434497528, 0.064, 0.016, 0.976, 192.0, 0.0, 0.0, 0.0, 0.0, 0.0, 0.0, 0.0, 0.0, 0.0, 1.708991198450179E9, 0.0, 2024-02-26 18:46:38.450
171.0, 187500.0, 187500.0, 187500.0, -182039.4688295685, 187500.0, 20097.436916522613, -182054.39979486464, -182028.1141433852, 0.064, 0.016, 0.976, 192.0, 0.0, 0.0, 0.0, 0.0, 0.0, 0.0, 0.0, 0.0, 0.0, 1.708991198455146E9, 0.0, 2024-02-26 18:46:38.455
172.0, 187500.0, 187500.0, 187500.0, -181905.26895585883, 187500.0, 19667.322297969138, -181937.96955799696, -181910.90159546156, 0.064, 0.016, 0.976, 192.0, 0.0, 0.0, 0.0, 0.0, 0.0, 0.0, 0.0, 0.0, 0.0, 1.708991198459141E9, 0.0, 2024-02-26 18:46:38.459
173.0, 187500.0, 187500.0, 187500.0, -181631.54949325914, 187500.0, 19184.703431690148, -181841.76764986131, -181813.69385882543, 0.064, 0.016, 0.976, 192.0, 0.0, 0.0, 0.0, 0.0, 0.0, 0.0, 0.0, 0.0, 0.0, 1.70899119846327E9, 0.0, 2024-02-26 18:46:38.463
174.0, 187500.0, 187500.0, 187500.0, -181661.63494129598, 187500.0, 19470.649298506894, -181839.10779227113, -181823.4168676635, 0.064, 0.016, 0.976, 192.0, 0.0, 0.0, 0.0, 0.0, 0.0, 0.0, 0.0, 0.0, 0.0, 1.708991198467191E9, 0.0, 2024-02-26 18:46:38.467
175.0, 187500.0, 187500.0, 187500.0, -182172.9981509445, 187500.0, 20366.574271508965, -181941.72465106545, -181926.88309274713, 0.064, 0.016, 0.976, 192.0, 0.0, 0.0, 0.0, 0.0, 0.0, 0.0, 0.0, 0.0, 0.0, 1.708991198471169E9, 0.0, 2024-02-26 18:46:38.471
176.0, 187500.0, 187500.0, 187500.0, -182367.41362421677, 187500.0, 20169.38718192425, -181915.46135133045, -181889.01923763982, 0.058, 0.014, 0.976, 192.0, 1.0, 208.0, 0.0, 112.0, 30.0, 128.0, 0.0, 0.0, 0.0, 1.708991198474165E9, 0.0, 2024-02-26 18:46:38.474
177.0, 187500.0, 187500.0, 187500.0, -182198.47913962355, 187500.0, 19523.019435765676, -181866.75690016235, -181824.55680663072, 0.058, 0.014, 0.976, 192.0, 0.0, 0.0, 0.0, 0.0, 0.0, 0.0, 0.0, 0.0, 0.0, 1.708991198478172E9, 0.0, 2024-02-26 18:46:38.478
178.0, 187500.0, 187500.0, 187500.0, -182157.4860402925, 187500.0, 19636.812166787644, -181827.3731264321, -181808.57530934518, 0.058, 0.014, 0.976, 192.0, 0.0, 0.0, 0.0, 0.0, 0.0, 0.0, 0.0, 0.0, 0.0, 1.70899119848317E9, 0.0, 2024-02-26 18:46:38.483
179.0, 187500.0, 187500.0, 187500.0, -182266.9201811457, 187500.0, 20449.81216786053, -181937.6342818301, -181919.59642405467, 0.058, 0.014, 0.976, 192.0, 0.0, 0.0, 0.0, 0.0, 0.0, 0.0, 0.0, 0.0, 0.0, 1.708991198487172E9, 0.0, 2024-02-26 18:46:38.487
180.0, 187500.0, 187500.0, 187500.0, -182266.94253289016, 187500.0, 20488.95007240177, -181954.08516574922, -181934.7956102843, 0.058, 0.014, 0.976, 192.0, 0.0, 0.0, 0.0, 0.0, 0.0, 0.0, 0.0, 0.0, 0.0, 1.708991198491179E9, 0.0, 2024-02-26 18:46:38.491
181.0, 187500.0, 187500.0, 187500.0, -182090.0284755264, 187500.0, 19693.652652937493, -181846.75208887484, -181822.74631532983, 0.058, 0.014, 0.976, 192.0, 0.0, 0.0, 0.0, 0.0, 0.0, 0.0, 0.0, 0.0, 0.0, 1.708991198495202E9, 0.0, 2024-02-26 18:46:38.495
182.0, 187500.0, 187500.0, 187500.0, -182037.90420745662, 187500.0, 19605.206800127842, -181815.88432978207, -181801.7580272863, 0.058, 0.014, 0.976, 192.0, 0.0, 0.0, 0.0, 0.0, 0.0, 0.0, 0.0, 0.0, 0.0, 1.708991198498188E9, 0.0, 2024-02-26 18:46:38.498
183.0, 187500.0, 187500.0, 187500.0, -182140.1410865952, 187500.0, 20243.95260142715, -181922.68096478953, -181908.7334762494, 0.058, 0.014, 0.976, 192.0, 0.0, 0.0, 0.0, 0.0, 0.0, 0.0, 0.0, 0.0, 0.0, 1.708991198502172E9, 0.0, 2024-02-26 18:46:38.502
184.0, 187500.0, 187500.0, 187500.0, -182178.02729344694, 187500.0, 20467.023011091114, -181974.73817762593, -181959.67310186304, 0.058, 0.014, 0.976, 192.0, 0.0, 0.0, 0.0, 0.0, 0.0, 0.0, 0.0, 0.0, 0.0, 1.708991198506184E9, 0.0, 2024-02-26 18:46:38.506
185.0, 187500.0, 187500.0, 187500.0, -182028.62823350768, 187500.0, 19628.385559127993, -181840.40419344953, -181824.89208279754, 0.06, 0.018000000000000002, 0.976, 192.0, 1.0, 224.0, 0.0, 144.0, 30.0, 128.0, 0.0, 0.0, 0.0, 1.708991198511228E9, 0.0, 2024-02-26 18:46:38.511
186.0, 187500.0, 187500.0, 187500.0, -181965.57396239924, 187500.0, 19397.089707504478, -181795.58894581665, -181783.13902415504, 0.06, 0.018000000000000002, 0.976, 192.0, 0.0, 0.0, 0.0, 0.0, 0.0, 0.0, 0.0, 0.0, 0.0, 1.708991198515232E9, 0.0, 2024-02-26 18:46:38.515
187.0, 187500.0, 187500.0, 187500.0, -182037.23365512295, 187500.0, 19943.545155947824, -181876.79283342278, -181864.45467048345, 0.06, 0.018000000000000002, 0.976, 192.0, 0.0, 0.0, 0.0, 0.0, 0.0, 0.0, 0.0, 0.0, 0.0, 1.708991198519242E9, 0.0, 2024-02-26 18:46:38.519
188.0, 187500.0, 187500.0, 187500.0, -182121.76795265294, 187500.0, 20436.244658976157, -181975.87811659314, -181962.4000146866, 0.06, 0.018000000000000002, 0.976, 192.0, 0.0, 0.0, 0.0, 0.0, 0.0, 0.0, 0.0, 0.0, 0.0, 1.708991198523227E9, 0.0, 2024-02-26 18:46:38.523
189.0, 187500.0, 187500.0, 187500.0, -181966.28921822182, 187500.0, 19662.963707800354, -181863.6276559386, -181842.41585045052, 0.06, 0.018000000000000002, 0.976, 192.0, 0.0, 0.0, 0.0, 0.0, 0.0, 0.0, 0.0, 0.0, 0.0, 1.708991198526229E9, 0.0, 2024-02-26 18:46:38.526
190.0, 187500.0, 187500.0, 187500.0, -181858.68792041397, 187500.0, 19311.035491351544, -181824.04271650824, -181793.62199230457, 0.06, 0.018000000000000002, 0.976, 192.0, 0.0, 0.0, 0.0, 0.0, 0.0, 0.0, 0.0, 0.0, 0.0, 1.708991198530228E9, 0.0, 2024-02-26 18:46:38.530
191.0, 187500.0, 187500.0, 187500.0, -181907.86175821564, 187500.0, 19739.473729070873, -181869.1708885635, -181846.50621968583, 0.06, 0.018000000000000002, 0.976, 192.0, 0.0, 0.0, 0.0, 0.0, 0.0, 0.0, 0.0, 0.0, 0.0, 1.708991198534227E9, 0.0, 2024-02-26 18:46:38.534
192.0, 187500.0, 187500.0, 187500.0, -182030.52813178638, 187500.0, 20419.682016334777, -182003.84014890675, -181980.77314862885, 0.06, 0.018000000000000002, 0.976, 192.0, 0.0, 0.0, 0.0, 0.0, 0.0, 0.0, 0.0, 0.0, 0.0, 1.708991198539228E9, 0.0, 2024-02-26 18:46:38.539
193.0, 187500.0, 187500.0, 187500.0, -181899.12222613362, 187500.0, 19789.47458141739, -181892.50610977484, -181868.85796414115, 0.06, 0.018000000000000002, 0.976, 192.0, 0.0, 0.0, 0.0, 0.0, 0.0, 0.0, 0.0, 0.0, 0.0, 1.708991198543228E9, 0.0, 2024-02-26 18:46:38.543
194.0, 187500.0, 187500.0, 187500.0, -181678.24228742628, 187500.0, 19328.603962493416, -181811.6151465911, -181786.17886140096, 0.06, 0.018000000000000002, 0.976, 192.0, 0.0, 0.0, 0.0, 0.0, 0.0, 0.0, 0.0, 0.0, 0.0, 1.708991198547243E9, 0.0, 2024-02-26 18:46:38.547
195.0, 187500.0, 187500.0, 187500.0, -181683.2267264398, 187500.0, 19661.01910603274, -181830.9270538005, -181809.156454701, 0.064, 0.016, 0.98, 192.0, 2.0, 0.0, 0.0, 128.0, 30.0, 160.0, 0.0, 0.0, 0.0, 1.708991198551221E9, 0.0, 2024-02-26 18:46:38.551
196.0, 187500.0, 187500.0, 187500.0, -182183.5034708385, 187500.0, 20451.063865550026, -181945.56915111176, -181923.91031073456, 0.064, 0.016, 0.98, 192.0, 0.0, 0.0, 0.0, 0.0, 0.0, 0.0, 0.0, 0.0, 0.0, 1.708991198554288E9, 0.0, 2024-02-26 18:46:38.554
197.0, 187500.0, 187500.0, 187500.0, -182334.28833893398, 187500.0, 20026.403072643647, -181885.91234516053, -181860.56546694823, 0.064, 0.016, 0.98, 192.0, 0.0, 0.0, 0.0, 0.0, 0.0, 0.0, 0.0, 0.0, 0.0, 1.708991198558278E9, 0.0, 2024-02-26 18:46:38.558
198.0, 187500.0, 187500.0, 187500.0, -182199.21674719057, 187500.0, 19413.56294316804, -181829.89887355553, -181803.54616684275, 0.064, 0.016, 0.98, 192.0, 0.0, 0.0, 0.0, 0.0, 0.0, 0.0, 0.0, 0.0, 0.0, 1.708991198562303E9, 0.0, 2024-02-26 18:46:38.562
199.0, 187500.0, 187500.0, 187500.0, -182197.62977333425, 187500.0, 19566.828854898078, -181829.94357704444, -181812.48686462487, 0.064, 0.016, 0.98, 192.0, 0.0, 0.0, 0.0, 0.0, 0.0, 0.0, 0.0, 0.0, 0.0, 1.708991198566299E9, 0.0, 2024-02-26 18:46:38.566
200.0, 187500.0, 187500.0, 187500.0, -182318.77622828202, 187500.0, 20344.781320665043, -181960.88009606363, -181942.75283131038, 0.064, 0.016, 0.98, 192.0, 0.0, 0.0, 0.0, 0.0, 0.0, 0.0, 0.0, 0.0, 0.0, 1.70899119857129E9, 0.0, 2024-02-26 18:46:38.571
201.0, 187500.0, 187500.0, 187500.0, -182265.31085554493, 187500.0, 20142.69919904461, -181927.75481078087, -181907.21355762644, 0.064, 0.016, 0.98, 192.0, 0.0, 0.0, 0.0, 0.0, 0.0, 0.0, 0.0, 0.0, 0.0, 1.708991198575276E9, 0.0, 2024-02-26 18:46:38.575
202.0, 187500.0, 187500.0, 187500.0, -182100.1314640202, 187500.0, 19417.429794958807, -181823.34981243013, -181797.28767839525, 0.064, 0.016, 0.98, 192.0, 0.0, 0.0, 0.0, 0.0, 0.0, 0.0, 0.0, 0.0, 0.0, 1.708991198578284E9, 0.0, 2024-02-26 18:46:38.578
203.0, 187500.0, 187500.0, 187500.0, -182080.59603936627, 187500.0, 19454.84661517699, -181813.3585826586, -181791.02918994776, 0.064, 0.016, 0.98, 192.0, 0.0, 0.0, 0.0, 0.0, 0.0, 0.0, 0.0, 0.0, 0.0, 1.708991198582278E9, 0.0, 2024-02-26 18:46:38.582
204.0, 187500.0, 187500.0, 187500.0, -182199.77554080196, 187500.0, 20195.359908981314, -181940.60706384268, -181920.19992115497, 0.064, 0.016, 0.98, 192.0, 0.0, 0.0, 0.0, 0.0, 0.0, 0.0, 0.0, 0.0, 0.0, 1.708991198586319E9, 0.0, 2024-02-26 18:46:38.586
205.0, 187500.0, 187500.0, 187500.0, -182206.86104379428, 187500.0, 20252.558023042446, -181961.9082763086, -181941.36702315416, 0.056, 0.016, 0.974, 192.0, 1.0, 192.0, 0.0, 128.0, 30.0, 112.0, 0.0, 0.0, 0.0, 1.708991198590321E9, 0.0, 2024-02-26 18:46:38.590
206.0, 187500.0, 187500.0, 187500.0, -182033.74678298793, 187500.0, 19444.94479238329, -181839.75599286033, -181818.43242864998, 0.056, 0.016, 0.974, 192.0, 0.0, 0.0, 0.0, 0.0, 0.0, 0.0, 0.0, 0.0, 0.0, 1.708991198594319E9, 0.0, 2024-02-26 18:46:38.594
207.0, 187500.0, 187500.0, 187500.0, -181970.93838106852, 187500.0, 19355.269593628596, -181810.43050413497, -181793.3537713711, 0.056, 0.016, 0.974, 192.0, 0.0, 0.0, 0.0, 0.0, 0.0, 0.0, 0.0, 0.0, 0.0, 1.708991198599335E9, 0.0, 2024-02-26 18:46:38.599
208.0, 187500.0, 187500.0, 187500.0, -182068.41433863813, 187500.0, 20024.23495343148, -181910.65572627255, -181894.85304294265, 0.056, 0.016, 0.974, 192.0, 0.0, 0.0, 0.0, 0.0, 0.0, 0.0, 0.0, 0.0, 0.0, 1.708991198603318E9, 0.0, 2024-02-26 18:46:38.603
209.0, 187500.0, 187500.0, 187500.0, -182114.34717349376, 187500.0, 20360.06991387247, -181970.714863624, -181954.50984889388, 0.056, 0.016, 0.974, 192.0, 0.0, 0.0, 0.0, 0.0, 0.0, 0.0, 0.0, 0.0, 0.0, 1.708991198606337E9, 0.0, 2024-02-26 18:46:38.606
210.0, 187500.0, 187500.0, 187500.0, -181940.87528477615, 187500.0, 19575.657793957926, -181840.73946961635, -181822.34398392963, 0.056, 0.016, 0.974, 192.0, 0.0, 0.0, 0.0, 0.0, 0.0, 0.0, 0.0, 0.0, 0.0, 1.708991198611322E9, 0.0, 2024-02-26 18:46:38.611
211.0, 187500.0, 187500.0, 187500.0, -181867.33804551818, 187500.0, 19372.659250814828, -181795.14191092754, -181777.55108804122, 0.056, 0.016, 0.974, 192.0, 0.0, 0.0, 0.0, 0.0, 0.0, 0.0, 0.0, 0.0, 0.0, 1.708991198615323E9, 0.0, 2024-02-26 18:46:38.615
212.0, 187500.0, 187500.0, 187500.0, -181937.27665391885, 187500.0, 19918.824126580254, -181868.09800482966, -181852.72000464442, 0.056, 0.016, 0.974, 192.0, 0.0, 0.0, 0.0, 0.0, 0.0, 0.0, 0.0, 0.0, 0.0, 1.708991198618335E9, 0.0, 2024-02-26 18:46:38.618
213.0, 187500.0, 187500.0, 187500.0, -182004.98008787396, 187500.0, 20470.3310692705, -181953.5040203934, -181937.3437091522, 0.056, 0.016, 0.974, 192.0, 0.0, 0.0, 0.0, 0.0, 0.0, 0.0, 0.0, 0.0, 0.0, 1.70899119862233E9, 0.0, 2024-02-26 18:46:38.622
214.0, 187500.0, 187500.0, 187500.0, -181827.99897527683, 187500.0, 19758.42800836897, -181845.05335629624, -181822.3663356741, 0.056, 0.016, 0.974, 192.0, 0.0, 0.0, 0.0, 0.0, 0.0, 0.0, 0.0, 0.0, 0.0, 1.708991198628314E9, 0.0, 2024-02-26 18:46:38.628
215.0, 187500.0, 187500.0, 187500.0, -181633.20352234883, 187500.0, 19447.04585636209, -181790.89507948104, -181775.58413452914, 0.056, 0.016, 0.978, 192.0, 1.0, 192.0, 0.0, 128.0, 30.0, 144.0, 0.0, 0.0, 0.0, 1.708991198631326E9, 0.0, 2024-02-26 18:46:38.631
216.0, 187500.0, 187500.0, 187500.0, -181739.2401980448, 187500.0, 19865.805788732265, -181829.0718590107, -181816.0184402488, 0.056, 0.016, 0.978, 192.0, 0.0, 0.0, 0.0, 0.0, 0.0, 0.0, 0.0, 0.0, 0.0, 1.708991198635363E9, 0.0, 2024-02-26 18:46:38.635
217.0, 187500.0, 187500.0, 187500.0, -182266.0708148564, 187500.0, 20571.562119908587, -181945.41268890057, -181931.55460733827, 0.056, 0.016, 0.978, 192.0, 0.0, 0.0, 0.0, 0.0, 0.0, 0.0, 0.0, 0.0, 0.0, 1.708991198638365E9, 0.0, 2024-02-26 18:46:38.638
218.0, 187500.0, 187500.0, 187500.0, -182316.04931545845, 187500.0, 19960.621888711677, -181869.55086821926, -181844.51691442932, 0.056, 0.016, 0.978, 192.0, 0.0, 0.0, 0.0, 0.0, 0.0, 0.0, 0.0, 0.0, 0.0, 1.708991198642364E9, 0.0, 2024-02-26 18:46:38.642
219.0, 187500.0, 187500.0, 187500.0, -182178.83195624733, 187500.0, 19433.52305096663, -181815.48199838187, -181784.86010847808, 0.056, 0.016, 0.978, 192.0, 0.0, 0.0, 0.0, 0.0, 0.0, 0.0, 0.0, 0.0, 0.0, 1.708991198646355E9, 0.0, 2024-02-26 18:46:38.646
220.0, 187500.0, 187500.0, 187500.0, -182203.82120654837, 187500.0, 19688.51175171277, -181836.15736200302, -181815.5043501263, 0.056, 0.016, 0.978, 192.0, 0.0, 0.0, 0.0, 0.0, 0.0, 0.0, 0.0, 0.0, 0.0, 1.70899119865037E9, 0.0, 2024-02-26 18:46:38.650
221.0, 187500.0, 187500.0, 187500.0, -182346.91707455125, 187500.0, 20453.00846731764, -181989.06564582177, -181969.32905546774, 0.056, 0.016, 0.978, 192.0, 0.0, 0.0, 0.0, 0.0, 0.0, 0.0, 0.0, 0.0, 0.0, 1.708991198655361E9, 0.0, 2024-02-26 18:46:38.655
222.0, 187500.0, 187500.0, 187500.0, -182263.96975087762, 187500.0, 20032.460395391037, -181917.65182228707, -181898.1387493776, 0.056, 0.016, 0.978, 192.0, 0.0, 0.0, 0.0, 0.0, 0.0, 0.0, 0.0, 0.0, 0.0, 1.708991198659351E9, 0.0, 2024-02-26 18:46:38.659
223.0, 187500.0, 187500.0, 187500.0, -182116.3364787503, 187500.0, 19366.06548620051, -181787.16233815698, -181770.912619938, 0.056, 0.016, 0.978, 192.0, 0.0, 0.0, 0.0, 0.0, 0.0, 0.0, 0.0, 0.0, 0.0, 1.708991198662395E9, 0.0, 2024-02-26 18:46:38.662
224.0, 187500.0, 187500.0, 187500.0, -182113.9448420936, 187500.0, 19473.152693885888, -181803.3673528871, -181784.39072184454, 0.056, 0.016, 0.978, 192.0, 0.0, 0.0, 0.0, 0.0, 0.0, 0.0, 0.0, 0.0, 0.0, 1.708991198666425E9, 0.0, 2024-02-26 18:46:38.666
225.0, 187500.0, 187500.0, 187500.0, -182232.47614294008, 187500.0, 20240.376322314303, -181932.91806375005, -181914.50022631887, 0.054, 0.008, 0.974, 192.0, 1.0, 176.0, 0.0, 64.0, 30.0, 112.0, 0.0, 0.0, 0.0, 1.708991198670422E9, 0.0, 2024-02-26 18:46:38.670
226.0, 187500.0, 187500.0, 187500.0, -182218.5510061444, 187500.0, 20105.304730570882, -181936.80726728527, -181917.47300833144, 0.054, 0.008, 0.974, 192.0, 0.0, 0.0, 0.0, 0.0, 0.0, 0.0, 0.0, 0.0, 0.0, 1.708991198674406E9, 0.0, 2024-02-26 18:46:38.674
227.0, 187500.0, 187500.0, 187500.0, -182034.10441089922, 187500.0, 19338.17050912029, -181816.04079199326, -181795.16426267198, 0.054, 0.008, 0.974, 192.0, 0.0, 0.0, 0.0, 0.0, 0.0, 0.0, 0.0, 0.0, 0.0, 1.7089911986784E9, 0.0, 2024-02-26 18:46:38.678
228.0, 187500.0, 187500.0, 187500.0, -181995.81587264728, 187500.0, 19343.222003367187, -181787.78818700174, -181774.7571199843, 0.054, 0.008, 0.974, 192.0, 0.0, 0.0, 0.0, 0.0, 0.0, 0.0, 0.0, 0.0, 0.0, 1.708991198682402E9, 0.0, 2024-02-26 18:46:38.682
229.0, 187500.0, 187500.0, 187500.0, -182112.5366821929, 187500.0, 20083.19885530458, -181913.04736292927, -181900.4856825454, 0.054, 0.008, 0.974, 192.0, 0.0, 0.0, 0.0, 0.0, 0.0, 0.0, 0.0, 0.0, 0.0, 1.708991198687404E9, 0.0, 2024-02-26 18:46:38.687
230.0, 187500.0, 187500.0, 187500.0, -182127.66881318914, 187500.0, 20226.831165174386, -181945.92677902305, -181931.95693873847, 0.054, 0.008, 0.974, 192.0, 0.0, 0.0, 0.0, 0.0, 0.0, 0.0, 0.0, 0.0, 0.0, 1.708991198690408E9, 0.0, 2024-02-26 18:46:38.690
231.0, 187500.0, 187500.0, 187500.0, -181947.11142147917, 187500.0, 19438.66395219135, -181824.57915837519, -181803.6132220761, 0.054, 0.008, 0.974, 192.0, 0.0, 0.0, 0.0, 0.0, 0.0, 0.0, 0.0, 0.0, 0.0, 1.708991198694404E9, 0.0, 2024-02-26 18:46:38.694
232.0, 187500.0, 187500.0, 187500.0, -181882.71604570342, 187500.0, 19327.19580259273, -181791.67739053696, -181769.77268097075, 0.054, 0.008, 0.974, 192.0, 0.0, 0.0, 0.0, 0.0, 0.0, 0.0, 0.0, 0.0, 0.0, 1.708991198698409E9, 0.0, 2024-02-26 18:46:38.698
233.0, 187500.0, 187500.0, 187500.0, -181966.69154962202, 187500.0, 19961.024220111874, -181876.5693159782, -181856.56450469073, 0.054, 0.008, 0.974, 192.0, 0.0, 0.0, 0.0, 0.0, 0.0, 0.0, 0.0, 0.0, 0.0, 1.70899119870241E9, 0.0, 2024-02-26 18:46:38.702
234.0, 187500.0, 187500.0, 187500.0, -182037.90420745662, 187500.0, 20366.015477897585, -181964.0093402874, -181942.17168595456, 0.054, 0.008, 0.974, 192.0, 0.0, 0.0, 0.0, 0.0, 0.0, 0.0, 0.0, 0.0, 0.0, 1.708991198709567E9, 0.0, 2024-02-26 18:46:38.709
235.0, 187500.0, 187500.0, 187500.0, -181865.7287199174, 187500.0, 19571.343907278053, -181848.78609762026, -181817.22543444938, 0.048, 0.008, 0.972, 192.0, 1.0, 128.0, 0.0, 64.0, 30.0, 96.0, 0.0, 0.0, 0.0, 1.708991198711527E9, 0.0, 2024-02-26 18:46:38.711
236.0, 187500.0, 187500.0, 187500.0, -181790.51509982528, 187500.0, 19320.40087227832, -181793.17495741547, -181772.34313158313, 0.048, 0.008, 0.972, 192.0, 0.0, 0.0, 0.0, 0.0, 0.0, 0.0, 0.0, 0.0, 0.0, 1.708991198714493E9, 0.0, 2024-02-26 18:46:38.714
237.0, 187500.0, 187500.0, 187500.0, -181869.84144089717, 187500.0, 19820.141174810073, -181876.2787433003, -181855.78219363478, 0.048, 0.008, 0.972, 192.0, 0.0, 0.0, 0.0, 0.0, 0.0, 0.0, 0.0, 0.0, 0.0, 1.70899119871749E9, 0.0, 2024-02-26 18:46:38.717
238.0, 187500.0, 187500.0, 187500.0, -181971.6536368911, 187500.0, 20400.57127482549, -181993.73716041294, -181971.96656131346, 0.048, 0.008, 0.972, 192.0, 0.0, 0.0, 0.0, 0.0, 0.0, 0.0, 0.0, 0.0, 0.0, 1.708991198722518E9, 0.0, 2024-02-26 18:46:38.722
239.0, 187500.0, 187500.0, 187500.0, -181730.50066596278, 187500.0, 19675.547739928694, -181870.3778827641, -181844.2263417514, 0.048, 0.008, 0.972, 192.0, 0.0, 0.0, 0.0, 0.0, 0.0, 0.0, 0.0, 0.0, 0.0, 1.708991198726509E9, 0.0, 2024-02-26 18:46:38.726
240.0, 187500.0, 187500.0, 187500.0, -181546.43405037333, 187500.0, 19283.162866015777, -181802.7638557868, -181775.53943104023, 0.048, 0.008, 0.972, 192.0, 0.0, 0.0, 0.0, 0.0, 0.0, 0.0, 0.0, 0.0, 0.0, 1.708991198730516E9, 0.0, 2024-02-26 18:46:38.730
241.0, 187500.0, 187500.0, 187500.0, -181886.00175213837, 187500.0, 19663.924832811932, -181822.43339090748, -181800.37221913008, 0.048, 0.008, 0.972, 192.0, 0.0, 0.0, 0.0, 0.0, 0.0, 0.0, 0.0, 0.0, 0.0, 1.70899119873451E9, 0.0, 2024-02-26 18:46:38.734
242.0, 187500.0, 187500.0, 187500.0, -182415.53693002905, 187500.0, 20387.450800830222, -181951.2017907145, -181929.18532242603, 0.048, 0.008, 0.972, 192.0, 0.0, 0.0, 0.0, 0.0, 0.0, 0.0, 0.0, 0.0, 0.0, 1.708991198738506E9, 0.0, 2024-02-26 18:46:38.738
243.0, 187500.0, 187500.0, 187500.0, -182390.7041419392, 187500.0, 19827.98663711389, -181870.24377229737, -181847.40028946404, 0.048, 0.008, 0.972, 192.0, 0.0, 0.0, 0.0, 0.0, 0.0, 0.0, 0.0, 0.0, 0.0, 1.708991198742499E9, 0.0, 2024-02-26 18:46:38.742
244.0, 187500.0, 187500.0, 187500.0, -182251.81040189392, 187500.0, 19274.758610100584, -181795.47718709437, -181773.61718101706, 0.048, 0.008, 0.972, 192.0, 0.0, 0.0, 0.0, 0.0, 0.0, 0.0, 0.0, 0.0, 0.0, 1.708991198745499E9, 0.0, 2024-02-26 18:46:38.745
245.0, 187500.0, 187500.0, 187500.0, -182274.13979460477, 187500.0, 19514.369310661474, -181842.05822253923, -181816.28666118227, 0.052000000000000005, 0.012, 0.974, 192.0, 1.0, 160.0, 0.0, 96.0, 30.0, 112.0, 0.0, 0.0, 0.0, 1.708991198749501E9, 0.0, 2024-02-26 18:46:38.749
246.0, 187500.0, 187500.0, 187500.0, -182422.7565434881, 187500.0, 20311.052538281983, -181993.22307029046, -181973.48647993643, 0.052000000000000005, 0.012, 0.974, 192.0, 0.0, 0.0, 0.0, 0.0, 0.0, 0.0, 0.0, 0.0, 0.0, 1.708991198754492E9, 0.0, 2024-02-26 18:46:38.754
247.0, 187500.0, 187500.0, 187500.0, -182341.4856006486, 187500.0, 19980.559644765814, -181935.98025274044, -181912.71208676245, 0.052000000000000005, 0.012, 0.974, 192.0, 0.0, 0.0, 0.0, 0.0, 0.0, 0.0, 0.0, 0.0, 0.0, 1.708991198759492E9, 0.0, 2024-02-26 18:46:38.759
248.0, 187500.0, 187500.0, 187500.0, -182146.4442785316, 187500.0, 19298.116183056376, -181826.94844328743, -181793.57728881566, 0.052000000000000005, 0.012, 0.974, 192.0, 0.0, 0.0, 0.0, 0.0, 0.0, 0.0, 0.0, 0.0, 0.0, 1.708991198763493E9, 0.0, 2024-02-26 18:46:38.763
249.0, 187500.0, 187500.0, 187500.0, -182140.72223195105, 187500.0, 19426.996341585676, -181824.2662339528, -181800.28281215226, 0.052000000000000005, 0.012, 0.974, 192.0, 0.0, 0.0, 0.0, 0.0, 0.0, 0.0, 0.0, 0.0, 0.0, 1.708991198766497E9, 0.0, 2024-02-26 18:46:38.766
250.0, 187500.0, 187500.0, 187500.0, -182265.84729741185, 187500.0, 20206.491077720057, -181957.86261056218, -181934.8403137732, 0.052000000000000005, 0.012, 0.974, 192.0, 0.0, 0.0, 0.0, 0.0, 0.0, 0.0, 0.0, 0.0, 0.0, 1.708991198770494E9, 0.0, 2024-02-26 18:46:38.770
251.0, 187500.0, 187500.0, 187500.0, -182247.4741634696, 187500.0, 20141.291039143925, -181953.9063517936, -181929.40883987056, 0.052000000000000005, 0.012, 0.974, 192.0, 0.0, 0.0, 0.0, 0.0, 0.0, 0.0, 0.0, 0.0, 0.0, 1.7089911987735E9, 0.0, 2024-02-26 18:46:38.773
252.0, 187500.0, 187500.0, 187500.0, -182079.0761207433, 187500.0, 19365.93137573378, -181800.7074952969, -181776.12057639606, 0.052000000000000005, 0.012, 0.974, 192.0, 0.0, 0.0, 0.0, 0.0, 0.0, 0.0, 0.0, 0.0, 0.0, 1.708991198778489E9, 0.0, 2024-02-26 18:46:38.778
253.0, 187500.0, 187500.0, 187500.0, -182053.30455938634, 187500.0, 19331.554392761518, -181795.03015220526, -181772.54429728322, 0.052000000000000005, 0.012, 0.974, 192.0, 0.0, 0.0, 0.0, 0.0, 0.0, 0.0, 0.0, 0.0, 0.0, 1.708991198782495E9, 0.0, 2024-02-26 18:46:38.782
254.0, 187500.0, 187500.0, 187500.0, -182160.32471183833, 187500.0, 20017.90940975063, -181912.75679025135, -181890.5391562628, 0.052000000000000005, 0.012, 0.974, 192.0, 0.0, 0.0, 0.0, 0.0, 0.0, 0.0, 0.0, 0.0, 0.0, 1.708991198786495E9, 0.0, 2024-02-26 18:46:38.786
255.0, 187500.0, 187500.0, 187500.0, -182177.66966553565, 187500.0, 20199.897313105743, -181944.20569469998, -181921.49632233338, 0.058, 0.014, 0.974, 192.0, 1.0, 208.0, 0.0, 112.0, 30.0, 112.0, 0.0, 0.0, 0.0, 1.708991198790502E9, 0.0, 2024-02-26 18:46:38.790
0.0, 187500.0, 187500.0, 187500.0, -182008.17638733107, 187500.0, 19390.74181207917, -181808.57530934518, -181790.67156203647, 0.058, 0.014, 0.974, 192.0, 0.0, 0.0, 0.0, 0.0, 0.0, 0.0, 0.0, 0.0, 0.0, 1.708991198794494E9, 0.0, 2024-02-26 18:46:38.794
1.0, 187500.0, 187500.0, 187500.0, -181948.83250580222, 187500.0, 19224.310722864953, -181772.92427693895, -181762.73188146733, 0.058, 0.014, 0.974, 192.0, 0.0, 0.0, 0.0, 0.0, 0.0, 0.0, 0.0, 0.0, 0.0, 1.708991198798513E9, 0.0, 2024-02-26 18:46:38.798
2.0, 187500.0, 187500.0, 187500.0, -182036.13841964465, 187500.0, 19806.193686269962, -181865.84047863967, -181855.26810351232, 0.058, 0.014, 0.974, 192.0, 0.0, 0.0, 0.0, 0.0, 0.0, 0.0, 0.0, 0.0, 0.0, 1.708991198801503E9, 0.0, 2024-02-26 18:46:38.801
3.0, 187500.0, 187500.0, 187500.0, -182104.62416465572, 187500.0, 20242.72325548211, -181949.61481685817, -181937.03078472984, 0.058, 0.014, 0.974, 192.0, 0.0, 0.0, 0.0, 0.0, 0.0, 0.0, 0.0, 0.0, 0.0, 1.708991198805535E9, 0.0, 2024-02-26 18:46:38.805
4.0, 187500.0, 187500.0, 187500.0, -181940.45060163148, 187500.0, 19463.89907168139, -181827.6189956211, -181805.82604477718, 0.058, 0.014, 0.974, 192.0, 0.0, 0.0, 0.0, 0.0, 0.0, 0.0, 0.0, 0.0, 0.0, 1.708991198810536E9, 0.0, 2024-02-26 18:46:38.810
5.0, 187500.0, 187500.0, 187500.0, -181853.39055697806, 187500.0, 19170.55477744994, -181784.18955614444, -181757.903904665, 0.058, 0.014, 0.974, 192.0, 0.0, 0.0, 0.0, 0.0, 0.0, 0.0, 0.0, 0.0, 0.0, 1.70899119881454E9, 0.0, 2024-02-26 18:46:38.814
6.0, 187500.0, 187500.0, 187500.0, -181913.2932321183, 187500.0, 19632.185355685397, -181842.75112661734, -181821.5616728737, 0.058, 0.014, 0.974, 192.0, 0.0, 0.0, 0.0, 0.0, 0.0, 0.0, 0.0, 0.0, 0.0, 1.708991198818526E9, 0.0, 2024-02-26 18:46:38.818
7.0, 187500.0, 187500.0, 187500.0, -182018.83816943626, 187500.0, 20252.915650953728, -181962.4447181755, -181941.3446714097, 0.058, 0.014, 0.974, 192.0, 0.0, 0.0, 0.0, 0.0, 0.0, 0.0, 0.0, 0.0, 0.0, 1.70899119882253E9, 0.0, 2024-02-26 18:46:38.822
8.0, 187500.0, 187500.0, 187500.0, -181870.71315893094, 187500.0, 19555.40711348142, -181854.17286803402, -181830.43531542245, 0.062, 0.022, 0.976, 192.0, 1.0, 240.0, 0.0, 176.0, 30.0, 128.0, 0.0, 0.0, 0.0, 1.708991198826517E9, 0.0, 2024-02-26 18:46:38.826
9.0, 187500.0, 187500.0, 187500.0, -181641.4736677973, 187500.0, 19093.508314312498, -181795.2089661609, -181773.12544263905, 0.062, 0.022, 0.976, 192.0, 0.0, 0.0, 0.0, 0.0, 0.0, 0.0, 0.0, 0.0, 0.0, 1.708991198829564E9, 0.0, 2024-02-26 18:46:38.829
10.0, 187500.0, 187500.0, 187500.0, -181693.1956044669, 187500.0, 19438.507489980162, -181842.88523708406, -181826.8143328207, 0.062, 0.022, 0.976, 192.0, 0.0, 0.0, 0.0, 0.0, 0.0, 0.0, 0.0, 0.0, 0.0, 1.708991198834562E9, 0.0, 2024-02-26 18:46:38.834
11.0, 187500.0, 187500.0, 187500.0, -182224.518921914, 187500.0, 20154.165643950182, -181968.56909615625, -181954.17457272703, 0.062, 0.022, 0.976, 192.0, 0.0, 0.0, 0.0, 0.0, 0.0, 0.0, 0.0, 0.0, 0.0, 1.708991198838572E9, 0.0, 2024-02-26 18:46:38.838
12.0, 187500.0, 187500.0, 187500.0, -182280.30887607444, 187500.0, 19613.78986999868, -181857.83855412467, -181839.80069634924, 0.062, 0.022, 0.976, 192.0, 0.0, 0.0, 0.0, 0.0, 0.0, 0.0, 0.0, 0.0, 0.0, 1.708991198842578E9, 0.0, 2024-02-26 18:46:38.842
13.0, 187500.0, 187500.0, 187500.0, -182154.91558968017, 187500.0, 19024.66494139015, -181783.07196892166, -181756.2051720864, 0.062, 0.022, 0.976, 192.0, 0.0, 0.0, 0.0, 0.0, 0.0, 0.0, 0.0, 0.0, 0.0, 1.708991198846586E9, 0.0, 2024-02-26 18:46:38.846
14.0, 187500.0, 187500.0, 187500.0, -182159.2965315934, 187500.0, 19186.066888101923, -181795.0078004608, -181771.18084087144, 0.062, 0.022, 0.976, 192.0, 0.0, 0.0, 0.0, 0.0, 0.0, 0.0, 0.0, 0.0, 0.0, 1.708991198849575E9, 0.0, 2024-02-26 18:46:38.849
15.0, 187500.0, 187500.0, 187500.0, -182298.6373065278, 187500.0, 19956.553871220814, -181947.1337732236, -181924.04442120128, 0.062, 0.022, 0.976, 192.0, 0.0, 0.0, 0.0, 0.0, 0.0, 0.0, 0.0, 0.0, 0.0, 1.708991198853568E9, 0.0, 2024-02-26 18:46:38.853
16.0, 187500.0, 187500.0, 187500.0, -182239.49459069903, 187500.0, 19664.260108978764, -181906.31948784823, -181882.4701765144, 0.062, 0.022, 0.976, 192.0, 0.0, 0.0, 0.0, 0.0, 0.0, 0.0, 0.0, 0.0, 0.0, 1.708991198857558E9, 0.0, 2024-02-26 18:46:38.857
17.0, 187500.0, 187500.0, 187500.0, -182074.3151991743, 187500.0, 18947.350257319245, -181783.85427997762, -181766.37521581355, 0.062, 0.022, 0.976, 192.0, 0.0, 0.0, 0.0, 0.0, 0.0, 0.0, 0.0, 0.0, 0.0, 1.708991198862556E9, 0.0, 2024-02-26 18:46:38.862
18.0, 187500.0, 187500.0, 187500.0, -182080.46192889952, 187500.0, 19012.95262729557, -181797.5111958398, -181787.09528292363, 0.062, 0.018000000000000002, 0.976, 192.0, 1.0, 240.0, 0.0, 144.0, 30.0, 128.0, 0.0, 0.0, 0.0, 1.708991198866586E9, 0.0, 2024-02-26 18:46:38.866
19.0, 187500.0, 187500.0, 187500.0, -182201.51897686947, 187500.0, 19734.511641801793, -181930.90640674907, -181918.81411299875, 0.062, 0.018000000000000002, 0.976, 192.0, 0.0, 0.0, 0.0, 0.0, 0.0, 0.0, 0.0, 0.0, 0.0, 1.708991198870571E9, 0.0, 2024-02-26 18:46:38.870
20.0, 187500.0, 187500.0, 187500.0, -182192.3547616428, 187500.0, 19704.157972831486, -181935.39910738458, -181921.83159850023, 0.062, 0.018000000000000002, 0.976, 192.0, 0.0, 0.0, 0.0, 0.0, 0.0, 0.0, 0.0, 0.0, 0.0, 1.708991198874633E9, 0.0, 2024-02-26 18:46:38.874
21.0, 187500.0, 187500.0, 187500.0, -182037.1665998896, 187500.0, 18900.053966051815, -181790.06806493617, -181775.09239615113, 0.062, 0.018000000000000002, 0.976, 192.0, 0.0, 0.0, 0.0, 0.0, 0.0, 0.0, 0.0, 0.0, 0.0, 1.708991198877628E9, 0.0, 2024-02-26 18:46:38.877
22.0, 187500.0, 187500.0, 187500.0, -182014.52428275638, 187500.0, 18807.562447495755, -181778.9592479419, -181764.07298613465, 0.062, 0.018000000000000002, 0.976, 192.0, 0.0, 0.0, 0.0, 0.0, 0.0, 0.0, 0.0, 0.0, 0.0, 1.708991198881615E9, 0.0, 2024-02-26 18:46:38.881
23.0, 187500.0, 187500.0, 187500.0, -182125.94772886607, 187500.0, 19440.586202214505, -181905.20190062546, -181890.24858358488, 0.062, 0.018000000000000002, 0.976, 192.0, 0.0, 0.0, 0.0, 0.0, 0.0, 0.0, 0.0, 0.0, 0.0, 1.708991198887604E9, 0.0, 2024-02-26 18:46:38.887
24.0, 187500.0, 187500.0, 187500.0, -182175.9485812126, 187500.0, 19663.164873500453, -181969.1502415121, -181953.57107562677, 0.062, 0.018000000000000002, 0.976, 192.0, 0.0, 0.0, 0.0, 0.0, 0.0, 0.0, 0.0, 0.0, 0.0, 1.708991198890638E9, 0.0, 2024-02-26 18:46:38.890
25.0, 187500.0, 187500.0, 187500.0, -182019.5087217699, 187500.0, 18823.38748257011, -181821.65107985152, -181804.17201568748, 0.062, 0.018000000000000002, 0.976, 192.0, 0.0, 0.0, 0.0, 0.0, 0.0, 0.0, 0.0, 0.0, 0.0, 1.70899119889464E9, 0.0, 2024-02-26 18:46:38.894
26.0, 187500.0, 187500.0, 187500.0, -181967.7644333559, 187500.0, 18608.386052654514, -181781.23912587634, -181763.2012681009, 0.062, 0.018000000000000002, 0.976, 192.0, 0.0, 0.0, 0.0, 0.0, 0.0, 0.0, 0.0, 0.0, 0.0, 1.708991198898643E9, 0.0, 2024-02-26 18:46:38.898
27.0, 187500.0, 187500.0, 187500.0, -182054.06451869782, 187500.0, 19151.175815007187, -181883.40894978153, -181864.54407746127, 0.062, 0.018000000000000002, 0.976, 192.0, 0.0, 0.0, 0.0, 0.0, 0.0, 0.0, 0.0, 0.0, 0.0, 1.70899119890264E9, 0.0, 2024-02-26 18:46:38.902
28.0, 187500.0, 187500.0, 187500.0, -182127.71351667805, 187500.0, 19619.087233434588, -181970.8489740907, -181950.97827326992, 0.064, 0.018000000000000002, 0.982, 192.0, 2.0, 0.0, 0.0, 144.0, 30.0, 176.0, 0.0, 0.0, 0.0, 1.708991198905657E9, 0.0, 2024-02-26 18:46:38.905
29.0, 187500.0, 187500.0, 187500.0, -181980.1025962952, 187500.0, 18869.70029708151, -181838.9289783155, -181817.40424840502, 0.064, 0.018000000000000002, 0.982, 192.0, 0.0, 0.0, 0.0, 0.0, 0.0, 0.0, 0.0, 0.0, 0.0, 1.708991198909668E9, 0.0, 2024-02-26 18:46:38.909
30.0, 187500.0, 187500.0, 187500.0, -181888.929830662, 187500.0, 18538.20157506485, -181780.52387005376, -181758.3062360652, 0.064, 0.018000000000000002, 0.982, 192.0, 0.0, 0.0, 0.0, 0.0, 0.0, 0.0, 0.0, 0.0, 0.0, 1.708991198913657E9, 0.0, 2024-02-26 18:46:38.913
31.0, 187500.0, 187500.0, 187500.0, -181954.12986923812, 187500.0, 18985.527036848907, -181854.15051628955, -181832.916359057, 0.064, 0.018000000000000002, 0.982, 192.0, 0.0, 0.0, 0.0, 0.0, 0.0, 0.0, 0.0, 0.0, 0.0, 1.708991198917657E9, 0.0, 2024-02-26 18:46:38.917
32.0, 187500.0, 187500.0, 187500.0, -182071.18595495058, 187500.0, 19670.60800440407, -181985.66818066456, -181964.18815424302, 0.064, 0.018000000000000002, 0.982, 192.0, 0.0, 0.0, 0.0, 0.0, 0.0, 0.0, 0.0, 0.0, 0.0, 1.70899119892268E9, 0.0, 2024-02-26 18:46:38.922
33.0, 187500.0, 187500.0, 187500.0, -181920.75871476636, 187500.0, 19058.416075517664, -181862.84534488266, -181838.99603354884, 0.064, 0.018000000000000002, 0.982, 192.0, 0.0, 0.0, 0.0, 0.0, 0.0, 0.0, 0.0, 0.0, 0.0, 1.708991198926684E9, 0.0, 2024-02-26 18:46:38.926
34.0, 187500.0, 187500.0, 187500.0, -181792.7055707819, 187500.0, 18637.979762313338, -181792.48205333736, -181764.4082623015, 0.064, 0.018000000000000002, 0.982, 192.0, 0.0, 0.0, 0.0, 0.0, 0.0, 0.0, 0.0, 0.0, 0.0, 1.708991198930677E9, 0.0, 2024-02-26 18:46:38.930
35.0, 187500.0, 187500.0, 187500.0, -181816.7113443269, 187500.0, 18977.078077444803, -181814.34205941466, -181791.49857658133, 0.064, 0.018000000000000002, 0.982, 192.0, 0.0, 0.0, 0.0, 0.0, 0.0, 0.0, 0.0, 0.0, 0.0, 1.708991198933655E9, 0.0, 2024-02-26 18:46:38.933
36.0, 187500.0, 187500.0, 187500.0, -181951.51471513687, 187500.0, 19792.313252963217, -181963.0035117869, -181940.4953051204, 0.064, 0.018000000000000002, 0.982, 192.0, 0.0, 0.0, 0.0, 0.0, 0.0, 0.0, 0.0, 0.0, 0.0, 1.708991198937647E9, 0.0, 2024-02-26 18:46:38.937
37.0, 187500.0, 187500.0, 187500.0, -181816.9572135159, 187500.0, 19375.810846783024, -181907.21355762644, -181879.94442939098, 0.064, 0.018000000000000002, 0.982, 192.0, 0.0, 0.0, 0.0, 0.0, 0.0, 0.0, 0.0, 0.0, 0.0, 1.708991198941699E9, 0.0, 2024-02-26 18:46:38.941
38.0, 187500.0, 187500.0, 187500.0, -181527.6362332864, 187500.0, 18778.952214592962, -181799.38874237405, -181774.44419556193, 0.058, 0.016, 0.976, 192.0, 1.0, 208.0, 0.0, 128.0, 30.0, 128.0, 0.0, 0.0, 0.0, 1.708991198945694E9, 0.0, 2024-02-26 18:46:38.945
39.0, 187500.0, 187500.0, 187500.0, -181746.16923882597, 187500.0, 18963.89054821617, -181774.57830602865, -181759.73674771033, 0.058, 0.016, 0.976, 192.0, 0.0, 0.0, 0.0, 0.0, 0.0, 0.0, 0.0, 0.0, 0.0, 1.708991198950684E9, 0.0, 2024-02-26 18:46:38.950
40.0, 187500.0, 187500.0, 187500.0, -182306.05808568693, 187500.0, 19745.7098657739, -181911.4380373285, -181896.6411824991, 0.058, 0.016, 0.976, 192.0, 0.0, 0.0, 0.0, 0.0, 0.0, 0.0, 0.0, 0.0, 0.0, 1.708991198954672E9, 0.0, 2024-02-26 18:46:38.954
41.0, 187500.0, 187500.0, 187500.0, -182447.7234420447, 187500.0, 19526.103976500508, -181896.95410692145, -181879.6762084575, 0.058, 0.016, 0.976, 192.0, 0.0, 0.0, 0.0, 0.0, 0.0, 0.0, 0.0, 0.0, 0.0, 1.708991198958672E9, 0.0, 2024-02-26 18:46:38.958
42.0, 187500.0, 187500.0, 187500.0, -182304.3817048528, 187500.0, 18782.461438472445, -181788.39168410204, -181767.87278269205, 0.058, 0.016, 0.976, 192.0, 0.0, 0.0, 0.0, 0.0, 0.0, 0.0, 0.0, 0.0, 0.0, 1.708991198961702E9, 0.0, 2024-02-26 18:46:38.961
43.0, 187500.0, 187500.0, 187500.0, -182278.7219022181, 187500.0, 18778.57223493722, -181792.8620329931, -181772.74546298332, 0.058, 0.016, 0.976, 192.0, 0.0, 0.0, 0.0, 0.0, 0.0, 0.0, 0.0, 0.0, 0.0, 1.708991198965729E9, 0.0, 2024-02-26 18:46:38.965
44.0, 187500.0, 187500.0, 187500.0, -182408.92081367027, 187500.0, 19515.263380439686, -181932.78395328333, -181916.26601413084, 0.058, 0.016, 0.976, 192.0, 0.0, 0.0, 0.0, 0.0, 0.0, 0.0, 0.0, 0.0, 0.0, 1.708991198969697E9, 0.0, 2024-02-26 18:46:38.969
45.0, 187500.0, 187500.0, 187500.0, -182419.0014504196, 187500.0, 19573.422619512396, -181954.8451250607, -181937.70133706348, 0.058, 0.016, 0.976, 192.0, 0.0, 0.0, 0.0, 0.0, 0.0, 0.0, 0.0, 0.0, 0.0, 1.708991198973701E9, 0.0, 2024-02-26 18:46:38.973
46.0, 187500.0, 187500.0, 187500.0, -182241.59565467783, 187500.0, 18797.124182835127, -181814.163245459, -181791.14094867004, 0.058, 0.016, 0.976, 192.0, 0.0, 0.0, 0.0, 0.0, 0.0, 0.0, 0.0, 0.0, 0.0, 1.708991198977696E9, 0.0, 2024-02-26 18:46:38.977
47.0, 187500.0, 187500.0, 187500.0, -182226.12824751477, 187500.0, 18760.199100994956, -181822.83572230767, -181801.24393716385, 0.058, 0.016, 0.976, 192.0, 0.0, 0.0, 0.0, 0.0, 0.0, 0.0, 0.0, 0.0, 0.0, 1.708991198982697E9, 0.0, 2024-02-26 18:46:38.982
48.0, 187500.0, 187500.0, 187500.0, -182318.6421178153, 187500.0, 19434.260658533654, -181921.20574965546, -181902.25147035735, 0.058, 0.018000000000000002, 0.978, 192.0, 1.0, 208.0, 0.0, 144.0, 30.0, 144.0, 0.0, 0.0, 0.0, 1.708991198986705E9, 0.0, 2024-02-26 18:46:38.986
49.0, 187500.0, 187500.0, 187500.0, -182347.4311646737, 187500.0, 19802.282130990283, -181965.01516878788, -181944.11628772216, 0.058, 0.018000000000000002, 0.978, 192.0, 0.0, 0.0, 0.0, 0.0, 0.0, 0.0, 0.0, 0.0, 0.0, 1.708991198989745E9, 0.0, 2024-02-26 18:46:38.989
50.0, 187500.0, 187500.0, 187500.0, -182160.25765660498, 187500.0, 19048.603659701785, -181823.55097813022, -181801.2662889083, 0.058, 0.018000000000000002, 0.978, 192.0, 0.0, 0.0, 0.0, 0.0, 0.0, 0.0, 0.0, 0.0, 0.0, 1.708991198993738E9, 0.0, 2024-02-26 18:46:38.993
51.0, 187500.0, 187500.0, 187500.0, -182088.50855690343, 187500.0, 18882.731364098952, -181776.99229442983, -181764.5647245127, 0.058, 0.018000000000000002, 0.978, 192.0, 0.0, 0.0, 0.0, 0.0, 0.0, 0.0, 0.0, 0.0, 0.0, 1.708991198997749E9, 0.0, 2024-02-26 18:46:38.997
52.0, 187500.0, 187500.0, 187500.0, -182169.6453892762, 187500.0, 19436.719350423737, -181862.55477220475, -181848.94255983146, 0.058, 0.018000000000000002, 0.978, 192.0, 0.0, 0.0, 0.0, 0.0, 0.0, 0.0, 0.0, 0.0, 0.0, 1.708991199001754E9, 0.0, 2024-02-26 18:46:39.001
53.0, 187500.0, 187500.0, 187500.0, -182252.50330597203, 187500.0, 19971.686002217055, -181960.1424884966, -181946.6867383345, 0.058, 0.018000000000000002, 0.978, 192.0, 0.0, 0.0, 0.0, 0.0, 0.0, 0.0, 0.0, 0.0, 0.0, 1.708991199006763E9, 0.0, 2024-02-26 18:46:39.006
54.0, 187500.0, 187500.0, 187500.0, -182101.04788554288, 187500.0, 19221.36029259685, -181832.96106254592, -181812.77743730278, 0.058, 0.018000000000000002, 0.978, 192.0, 0.0, 0.0, 0.0, 0.0, 0.0, 0.0, 0.0, 0.0, 0.0, 1.708991199010746E9, 0.0, 2024-02-26 18:46:39.010
55.0, 187500.0, 187500.0, 187500.0, -182001.26969829437, 187500.0, 18811.697520219986, -181781.79791948773, -181755.48991626382, 0.058, 0.018000000000000002, 0.978, 192.0, 0.0, 0.0, 0.0, 0.0, 0.0, 0.0, 0.0, 0.0, 0.0, 1.708991199014749E9, 0.0, 2024-02-26 18:46:39.014
56.0, 187500.0, 187500.0, 187500.0, -182053.86335299772, 187500.0, 19150.54996616244, -181838.75016435984, -181817.13602747157, 0.058, 0.018000000000000002, 0.978, 192.0, 0.0, 0.0, 0.0, 0.0, 0.0, 0.0, 0.0, 0.0, 0.0, 1.708991199017759E9, 0.0, 2024-02-26 18:46:39.017
57.0, 187500.0, 187500.0, 187500.0, -182189.33727614133, 187500.0, 19792.62617738559, -181986.45049172052, -181965.57396239924, 0.058, 0.018000000000000002, 0.978, 192.0, 0.0, 0.0, 0.0, 0.0, 0.0, 0.0, 0.0, 0.0, 0.0, 1.708991199021752E9, 0.0, 2024-02-26 18:46:39.021
58.0, 187500.0, 187500.0, 187500.0, -182075.23162069698, 187500.0, 19131.640390353252, -181881.75492069186, -181859.6266936811, 0.06, 0.018000000000000002, 0.982, 192.0, 1.0, 224.0, 0.0, 144.0, 30.0, 176.0, 0.0, 0.0, 0.0, 1.708991199025744E9, 0.0, 2024-02-26 18:46:39.025
59.0, 187500.0, 187500.0, 187500.0, -181957.7508518399, 187500.0, 18562.20734860985, -181774.48889905083, -181750.9972156283, 0.06, 0.018000000000000002, 0.982, 192.0, 0.0, 0.0, 0.0, 0.0, 0.0, 0.0, 0.0, 0.0, 0.0, 1.708991199029757E9, 0.0, 2024-02-26 18:46:39.029
60.0, 187500.0, 187500.0, 187500.0, -181988.3056865103, 187500.0, 18770.726772633407, -181818.9688705169, -181793.97962021586, 0.06, 0.018000000000000002, 0.982, 192.0, 0.0, 0.0, 0.0, 0.0, 0.0, 0.0, 0.0, 0.0, 0.0, 1.708991199035756E9, 0.0, 2024-02-26 18:46:39.035
61.0, 187500.0, 187500.0, 187500.0, -182118.48224621802, 187500.0, 19505.786240790636, -181965.01516878788, -181940.76352605387, 0.06, 0.018000000000000002, 0.982, 192.0, 0.0, 0.0, 0.0, 0.0, 0.0, 0.0, 0.0, 0.0, 0.0, 1.708991199038797E9, 0.0, 2024-02-26 18:46:39.038
62.0, 187500.0, 187500.0, 187500.0, -182029.63406200818, 187500.0, 19093.888293968237, -181889.46627252892, -181866.51103097334, 0.06, 0.018000000000000002, 0.982, 192.0, 0.0, 0.0, 0.0, 0.0, 0.0, 0.0, 0.0, 0.0, 0.0, 1.708991199041804E9, 0.0, 2024-02-26 18:46:39.041
63.0, 187500.0, 187500.0, 187500.0, -181885.4876620159, 187500.0, 18464.75374278471, -181766.44227104692, -181750.3490150391, 0.06, 0.018000000000000002, 0.982, 192.0, 0.0, 0.0, 0.0, 0.0, 0.0, 0.0, 0.0, 0.0, 0.0, 1.708991199045797E9, 0.0, 2024-02-26 18:46:39.045
64.0, 187500.0, 187500.0, 187500.0, -181893.2884208308, 187500.0, 18609.72715732183, -181784.41307358898, -181771.404358316, 0.06, 0.018000000000000002, 0.982, 192.0, 0.0, 0.0, 0.0, 0.0, 0.0, 0.0, 0.0, 0.0, 0.0, 1.708991199049813E9, 0.0, 2024-02-26 18:46:39.049
65.0, 187500.0, 187500.0, 187500.0, -182024.22493984998, 187500.0, 19409.830201844, -181929.31943289275, -181916.17660715303, 0.06, 0.018000000000000002, 0.982, 192.0, 0.0, 0.0, 0.0, 0.0, 0.0, 0.0, 0.0, 0.0, 0.0, 1.708991199053799E9, 0.0, 2024-02-26 18:46:39.053
66.0, 187500.0, 187500.0, 187500.0, -181989.98206734445, 187500.0, 19298.786735390036, -181913.15912165155, -181897.26703134383, 0.06, 0.018000000000000002, 0.982, 192.0, 0.0, 0.0, 0.0, 0.0, 0.0, 0.0, 0.0, 0.0, 0.0, 1.708991199057808E9, 0.0, 2024-02-26 18:46:39.057
67.0, 187500.0, 187500.0, 187500.0, -181795.96892547238, 187500.0, 18574.59021503809, -181812.12923671358, -181783.87663172206, 0.06, 0.018000000000000002, 0.982, 192.0, 0.0, 0.0, 0.0, 0.0, 0.0, 0.0, 0.0, 0.0, 0.0, 1.708991199061798E9, 0.0, 2024-02-26 18:46:39.061
68.0, 187500.0, 187500.0, 187500.0, -181611.0082401047, 187500.0, 18601.07703221763, -181829.9659287889, -181790.8056725032, 0.06, 0.02, 0.984, 192.0, 1.0, 224.0, 0.0, 160.0, 30.0, 192.0, 0.0, 0.0, 0.0, 1.708991199066804E9, 0.0, 2024-02-26 18:46:39.066
69.0, 187500.0, 187500.0, 187500.0, -181940.3835463981, 187500.0, 19381.443486385764, -181961.3941861861, -181932.3369183942, 0.06, 0.02, 0.984, 192.0, 0.0, 0.0, 0.0, 0.0, 0.0, 0.0, 0.0, 0.0, 0.0, 1.708991199069809E9, 0.0, 2024-02-26 18:46:39.069
70.0, 187500.0, 187500.0, 187500.0, -182324.72179230713, 187500.0, 19508.177877447353, -181982.27071550736, -181953.77224132686, 0.06, 0.02, 0.984, 192.0, 0.0, 0.0, 0.0, 0.0, 0.0, 0.0, 0.0, 0.0, 0.0, 1.708991199073795E9, 0.0, 2024-02-26 18:46:39.073
71.0, 187500.0, 187500.0, 187500.0, -182196.69100006713, 187500.0, 18694.97671067437, -181812.8221407917, -181782.31200961018, 0.06, 0.02, 0.984, 192.0, 0.0, 0.0, 0.0, 0.0, 0.0, 0.0, 0.0, 0.0, 0.0, 1.708991199077827E9, 0.0, 2024-02-26 18:46:39.077
72.0, 187500.0, 187500.0, 187500.0, -182143.65031047468, 187500.0, 18555.501825273255, -181772.16431762747, -181740.51424747877, 0.06, 0.02, 0.984, 192.0, 0.0, 0.0, 0.0, 0.0, 0.0, 0.0, 0.0, 0.0, 0.0, 1.708991199081845E9, 0.0, 2024-02-26 18:46:39.081
73.0, 187500.0, 187500.0, 187500.0, -182255.02905309547, 187500.0, 19173.41580074022, -181898.6304877556, -181865.84047863967, 0.06, 0.02, 0.984, 192.0, 0.0, 0.0, 0.0, 0.0, 0.0, 0.0, 0.0, 0.0, 0.0, 1.708991199085835E9, 0.0, 2024-02-26 18:46:39.085
74.0, 187500.0, 187500.0, 187500.0, -182347.69938560718, 187500.0, 19543.337171475552, -182007.03644836386, -181973.19590725852, 0.06, 0.02, 0.984, 192.0, 0.0, 0.0, 0.0, 0.0, 0.0, 0.0, 0.0, 0.0, 0.0, 1.70899119908985E9, 0.0, 2024-02-26 18:46:39.089
75.0, 187500.0, 187500.0, 187500.0, -182179.92719172564, 187500.0, 18719.630684808577, -181849.05431855374, -181816.57723386018, 0.06, 0.02, 0.984, 192.0, 0.0, 0.0, 0.0, 0.0, 0.0, 0.0, 0.0, 0.0, 0.0, 1.708991199094826E9, 0.0, 2024-02-26 18:46:39.094
76.0, 187500.0, 187500.0, 187500.0, -182091.973077294, 187500.0, 18432.187251113326, -181772.14196588303, -181746.03512835922, 0.06, 0.02, 0.984, 192.0, 0.0, 0.0, 0.0, 0.0, 0.0, 0.0, 0.0, 0.0, 0.0, 1.708991199099718E9, 0.0, 2024-02-26 18:46:39.099
77.0, 187500.0, 187500.0, 187500.0, -182163.7892322289, 187500.0, 18914.94022785905, -181857.63738842457, -181830.45766716692, 0.06, 0.02, 0.984, 192.0, 0.0, 0.0, 0.0, 0.0, 0.0, 0.0, 0.0, 0.0, 0.0, 1.708991199101823E9, 0.0, 2024-02-26 18:46:39.101
78.0, 187500.0, 187500.0, 187500.0, -182265.08733810036, 187500.0, 19501.248836666207, -181973.3970729586, -181946.1949999565, 0.068, 0.014, 0.986, 192.0, 2.0, 32.0, 0.0, 112.0, 30.0, 208.0, 0.0, 0.0, 0.0, 1.708991199105861E9, 0.0, 2024-02-26 18:46:39.105
79.0, 187500.0, 187500.0, 187500.0, -182123.57844395383, 187500.0, 18808.322406807234, -181845.41098420753, -181823.64038510804, 0.068, 0.014, 0.986, 192.0, 0.0, 0.0, 0.0, 0.0, 0.0, 0.0, 0.0, 0.0, 0.0, 1.708991199109864E9, 0.0, 2024-02-26 18:46:39.109
80.0, 187500.0, 187500.0, 187500.0, -182014.457227523, 187500.0, 18425.571134754555, -181758.28388432073, -181749.72316619437, 0.068, 0.014, 0.986, 192.0, 0.0, 0.0, 0.0, 0.0, 0.0, 0.0, 0.0, 0.0, 0.0, 1.708991199113896E9, 0.0, 2024-02-26 18:46:39.113
81.0, 187500.0, 187500.0, 187500.0, -182051.40466110763, 187500.0, 18808.031834129313, -181805.69193431045, -181793.86786149358, 0.068, 0.014, 0.986, 192.0, 0.0, 0.0, 0.0, 0.0, 0.0, 0.0, 0.0, 0.0, 0.0, 1.708991199119874E9, 0.0, 2024-02-26 18:46:39.119
82.0, 187500.0, 187500.0, 187500.0, -182167.9019532087, 187500.0, 19555.742389648247, -181936.65080507408, -181923.99971771237, 0.068, 0.014, 0.986, 192.0, 0.0, 0.0, 0.0, 0.0, 0.0, 0.0, 0.0, 0.0, 0.0, 1.708991199122876E9, 0.0, 2024-02-26 18:46:39.122
83.0, 187500.0, 187500.0, 187500.0, -182054.75742277593, 187500.0, 19039.28298226392, -181872.61305720964, -181846.99795806385, 0.068, 0.014, 0.986, 192.0, 0.0, 0.0, 0.0, 0.0, 0.0, 0.0, 0.0, 0.0, 0.0, 1.708991199125873E9, 0.0, 2024-02-26 18:46:39.125
84.0, 187500.0, 187500.0, 187500.0, -181901.06682790123, 187500.0, 18521.460118467825, -181808.0612192227, -181777.21581187437, 0.068, 0.014, 0.986, 192.0, 0.0, 0.0, 0.0, 0.0, 0.0, 0.0, 0.0, 0.0, 0.0, 1.708991199129871E9, 0.0, 2024-02-26 18:46:39.129
85.0, 187500.0, 187500.0, 187500.0, -181925.58669156872, 187500.0, 18785.00953734035, -181821.0699344957, -181803.68027730947, 0.068, 0.014, 0.986, 192.0, 0.0, 0.0, 0.0, 0.0, 0.0, 0.0, 0.0, 0.0, 0.0, 1.708991199133872E9, 0.0, 2024-02-26 18:46:39.133
86.0, 187500.0, 187500.0, 187500.0, -182056.23263790997, 187500.0, 19582.36331729452, -181963.78582284282, -181944.71978482246, 0.068, 0.014, 0.986, 192.0, 0.0, 0.0, 0.0, 0.0, 0.0, 0.0, 0.0, 0.0, 0.0, 1.708991199137877E9, 0.0, 2024-02-26 18:46:39.137
87.0, 187500.0, 187500.0, 187500.0, -181988.43979697704, 187500.0, 19274.915072311767, -181914.20965364095, -181893.95897316444, 0.068, 0.014, 0.986, 192.0, 0.0, 0.0, 0.0, 0.0, 0.0, 0.0, 0.0, 0.0, 0.0, 1.70899119914187E9, 0.0, 2024-02-26 18:46:39.141
88.0, 187500.0, 187500.0, 187500.0, -181804.9990302323, 187500.0, 18596.271407159737, -181796.2594981503, -181774.7571199843, 0.062, 0.014, 0.992, 192.0, 1.0, 240.0, 0.0, 112.0, 31.0, 0.0, 0.0, 0.0, 0.0, 1.708991199145871E9, 0.0, 2024-02-26 18:46:39.145
89.0, 187500.0, 187500.0, 187500.0, -181790.26923063627, 187500.0, 18711.293484126745, -181801.400399375, -181781.41793983197, 0.062, 0.014, 0.992, 192.0, 0.0, 0.0, 0.0, 0.0, 0.0, 0.0, 0.0, 0.0, 0.0, 1.708991199148872E9, 0.0, 2024-02-26 18:46:39.148
90.0, 187500.0, 187500.0, 187500.0, -181918.74705776537, 187500.0, 19474.2479293642, -181933.32039515025, -181916.64599378657, 0.062, 0.014, 0.992, 192.0, 0.0, 0.0, 0.0, 0.0, 0.0, 0.0, 0.0, 0.0, 0.0, 1.708991199152926E9, 0.0, 2024-02-26 18:46:39.152
91.0, 187500.0, 187500.0, 187500.0, -181889.6897899735, 187500.0, 19411.0818995335, -181923.21740665645, -181906.16302563704, 0.062, 0.014, 0.992, 192.0, 0.0, 0.0, 0.0, 0.0, 0.0, 0.0, 0.0, 0.0, 0.0, 1.708991199156919E9, 0.0, 2024-02-26 18:46:39.156
92.0, 187500.0, 187500.0, 187500.0, -181614.38335351748, 187500.0, 18667.93109988345, -181792.32559112617, -181773.61718101706, 0.062, 0.014, 0.992, 192.0, 0.0, 0.0, 0.0, 0.0, 0.0, 0.0, 0.0, 0.0, 0.0, 1.708991199161908E9, 0.0, 2024-02-26 18:46:39.161
93.0, 187500.0, 187500.0, 187500.0, -181645.63109226598, 187500.0, 18659.929175368452, -181772.94662868342, -181754.43938427442, 0.062, 0.014, 0.992, 192.0, 0.0, 0.0, 0.0, 0.0, 0.0, 0.0, 0.0, 0.0, 0.0, 1.708991199165915E9, 0.0, 2024-02-26 18:46:39.165
94.0, 187500.0, 187500.0, 187500.0, -182162.0904996503, 187500.0, 19358.68941053026, -181886.40408353857, -181868.81326065224, 0.062, 0.014, 0.992, 192.0, 0.0, 0.0, 0.0, 0.0, 0.0, 0.0, 0.0, 0.0, 0.0, 1.708991199169922E9, 0.0, 2024-02-26 18:46:39.169
95.0, 187500.0, 187500.0, 187500.0, -182423.5612062885, 187500.0, 19530.797842836124, -181909.87341521663, -181889.60038299568, 0.062, 0.014, 0.992, 192.0, 0.0, 0.0, 0.0, 0.0, 0.0, 0.0, 0.0, 0.0, 0.0, 1.70899119917391E9, 0.0, 2024-02-26 18:46:39.173
96.0, 187500.0, 187500.0, 187500.0, -182261.98044562107, 187500.0, 18732.281772170278, -181806.22837617737, -181778.5569165417, 0.062, 0.014, 0.992, 192.0, 0.0, 0.0, 0.0, 0.0, 0.0, 0.0, 0.0, 0.0, 0.0, 1.708991199178914E9, 0.0, 2024-02-26 18:46:39.178
97.0, 187500.0, 187500.0, 187500.0, -182203.68709608164, 187500.0, 18574.38904933799, -181769.07977689264, -181753.2547418183, 0.058, 0.014, 0.982, 192.0, 1.0, 208.0, 0.0, 112.0, 30.0, 176.0, 0.0, 0.0, 0.0, 1.708991199181918E9, 0.0, 2024-02-26 18:46:39.181
98.0, 187500.0, 187500.0, 187500.0, -182282.14171911977, 187500.0, 19140.335218946366, -181849.45664995394, -181835.28564396926, 0.058, 0.014, 0.982, 192.0, 0.0, 0.0, 0.0, 0.0, 0.0, 0.0, 0.0, 0.0, 0.0, 1.708991199185908E9, 0.0, 2024-02-26 18:46:39.185
99.0, 187500.0, 187500.0, 187500.0, -182360.66339739127, 187500.0, 19583.235035328275, -181943.91512202207, -181929.09591544818, 0.058, 0.014, 0.982, 192.0, 0.0, 0.0, 0.0, 0.0, 0.0, 0.0, 0.0, 0.0, 0.0, 1.708991199189935E9, 0.0, 2024-02-26 18:46:39.189
100.0, 187500.0, 187500.0, 187500.0, -182211.8007793189, 187500.0, 18810.311712063758, -181818.79005656127, -181803.76968428728, 0.058, 0.014, 0.982, 192.0, 0.0, 0.0, 0.0, 0.0, 0.0, 0.0, 0.0, 0.0, 0.0, 1.708991199193928E9, 0.0, 2024-02-26 18:46:39.193
101.0, 187500.0, 187500.0, 187500.0, -182121.43267648612, 187500.0, 18517.168583532402, -181766.5093262803, -181755.02052963027, 0.058, 0.014, 0.982, 192.0, 0.0, 0.0, 0.0, 0.0, 0.0, 0.0, 0.0, 0.0, 0.0, 1.708991199197918E9, 0.0, 2024-02-26 18:46:39.197
102.0, 187500.0, 187500.0, 187500.0, -182188.19733717412, 187500.0, 18993.70777531955, -181838.19137074845, -181828.5130653993, 0.058, 0.014, 0.982, 192.0, 0.0, 0.0, 0.0, 0.0, 0.0, 0.0, 0.0, 0.0, 0.0, 1.708991199201946E9, 0.0, 2024-02-26 18:46:39.201
103.0, 187500.0, 187500.0, 187500.0, -182274.69858821615, 187500.0, 19621.992960213778, -181938.26013067487, -181928.47006660345, 0.058, 0.014, 0.982, 192.0, 0.0, 0.0, 0.0, 0.0, 0.0, 0.0, 0.0, 0.0, 0.0, 1.708991199204922E9, 0.0, 2024-02-26 18:46:39.204
104.0, 187500.0, 187500.0, 187500.0, -182128.76404866745, 187500.0, 18981.727240291508, -181835.39740269154, -181814.7220390704, 0.058, 0.014, 0.982, 192.0, 0.0, 0.0, 0.0, 0.0, 0.0, 0.0, 0.0, 0.0, 0.0, 1.708991199208966E9, 0.0, 2024-02-26 18:46:39.208
105.0, 187500.0, 187500.0, 187500.0, -182012.3114600553, 187500.0, 18570.85747371405, -181780.23329737585, -181754.1935150854, 0.058, 0.014, 0.982, 192.0, 0.0, 0.0, 0.0, 0.0, 0.0, 0.0, 0.0, 0.0, 0.0, 1.708991199212962E9, 0.0, 2024-02-26 18:46:39.212
106.0, 187500.0, 187500.0, 187500.0, -182049.84003899575, 187500.0, 18919.254114538922, -181822.411039163, -181802.29446915325, 0.058, 0.014, 0.982, 192.0, 0.0, 0.0, 0.0, 0.0, 0.0, 0.0, 0.0, 0.0, 0.0, 1.708991199217949E9, 0.0, 2024-02-26 18:46:39.217
107.0, 187500.0, 187500.0, 187500.0, -182175.0545114344, 187500.0, 19679.50399869728, -181956.2532849614, -181937.187246941, 0.06, 0.018000000000000002, 0.978, 192.0, 1.0, 224.0, 0.0, 144.0, 30.0, 144.0, 0.0, 0.0, 0.0, 1.708991199221951E9, 0.0, 2024-02-26 18:46:39.221
108.0, 187500.0, 187500.0, 187500.0, -182071.45417588405, 187500.0, 19215.727652994115, -181864.49937397236, -181845.03100455177, 0.06, 0.018000000000000002, 0.978, 192.0, 0.0, 0.0, 0.0, 0.0, 0.0, 0.0, 0.0, 0.0, 0.0, 1.708991199225945E9, 0.0, 2024-02-26 18:46:39.225
109.0, 187500.0, 187500.0, 187500.0, -181940.00356674238, 187500.0, 18674.4578092644, -181754.93112265243, -181736.80385789918, 0.06, 0.018000000000000002, 0.978, 192.0, 0.0, 0.0, 0.0, 0.0, 0.0, 0.0, 0.0, 0.0, 0.0, 1.708991199229976E9, 0.0, 2024-02-26 18:46:39.229
110.0, 187500.0, 187500.0, 187500.0, -181953.5040203934, 187500.0, 18900.568056174285, -181779.27217236426, -181760.78727969973, 0.06, 0.018000000000000002, 0.978, 192.0, 0.0, 0.0, 0.0, 0.0, 0.0, 0.0, 0.0, 0.0, 0.0, 1.708991199232988E9, 0.0, 2024-02-26 18:46:39.232
111.0, 187500.0, 187500.0, 187500.0, -182071.4765276285, 187500.0, 19711.534048501737, -181911.90742396205, -181893.2884208308, 0.06, 0.018000000000000002, 0.978, 192.0, 0.0, 0.0, 0.0, 0.0, 0.0, 0.0, 0.0, 0.0, 0.0, 1.708991199236985E9, 0.0, 2024-02-26 18:46:39.236
112.0, 187500.0, 187500.0, 187500.0, -181985.60112543122, 187500.0, 19473.17504563034, -181883.2748393148, -181851.64712091055, 0.06, 0.018000000000000002, 0.978, 192.0, 0.0, 0.0, 0.0, 0.0, 0.0, 0.0, 0.0, 0.0, 0.0, 1.708991199241027E9, 0.0, 2024-02-26 18:46:39.241
113.0, 187500.0, 187500.0, 187500.0, -181806.3177831552, 187500.0, 18825.041511659805, -181796.77358827277, -181765.19057335742, 0.06, 0.018000000000000002, 0.978, 192.0, 0.0, 0.0, 0.0, 0.0, 0.0, 0.0, 0.0, 0.0, 0.0, 1.708991199246002E9, 0.0, 2024-02-26 18:46:39.246
114.0, 187500.0, 187500.0, 187500.0, -181794.24784114934, 187500.0, 18930.27352455539, -181772.8125182167, -181752.8524104181, 0.06, 0.018000000000000002, 0.978, 192.0, 0.0, 0.0, 0.0, 0.0, 0.0, 0.0, 0.0, 0.0, 0.0, 1.708991199249997E9, 0.0, 2024-02-26 18:46:39.249
115.0, 187500.0, 187500.0, 187500.0, -181911.5944995397, 187500.0, 19685.56132144467, -181900.6421447566, -181879.81031892425, 0.06, 0.018000000000000002, 0.978, 192.0, 0.0, 0.0, 0.0, 0.0, 0.0, 0.0, 0.0, 0.0, 0.0, 1.708991199254E9, 0.0, 2024-02-26 18:46:39.254
116.0, 187500.0, 187500.0, 187500.0, -181885.5770689937, 187500.0, 19684.443734221906, -181902.65380175755, -181880.01148462432, 0.06, 0.018000000000000002, 0.978, 192.0, 0.0, 0.0, 0.0, 0.0, 0.0, 0.0, 0.0, 0.0, 0.0, 1.708991199257996E9, 0.0, 2024-02-26 18:46:39.257
117.0, 187500.0, 187500.0, 187500.0, -181579.04524553363, 187500.0, 18911.83333537976, -181805.5131203548, -181776.54525954073, 0.054, 0.022, 0.984, 192.0, 1.0, 176.0, 0.0, 176.0, 30.0, 192.0, 0.0, 0.0, 0.0, 1.708991199261994E9, 0.0, 2024-02-26 18:46:39.261
118.0, 187500.0, 187500.0, 187500.0, -181604.95091735732, 187500.0, 18864.179416201045, -181765.59290475762, -181746.7056806929, 0.054, 0.022, 0.984, 192.0, 0.0, 0.0, 0.0, 0.0, 0.0, 0.0, 0.0, 0.0, 0.0, 1.708991199265022E9, 0.0, 2024-02-26 18:46:39.265
119.0, 187500.0, 187500.0, 187500.0, -182095.95168780707, 187500.0, 19536.54224116114, -181850.08249879867, -181833.98924279085, 0.054, 0.022, 0.984, 192.0, 0.0, 0.0, 0.0, 0.0, 0.0, 0.0, 0.0, 0.0, 0.0, 1.708991199269025E9, 0.0, 2024-02-26 18:46:39.269
120.0, 187500.0, 187500.0, 187500.0, -182418.93439518625, 187500.0, 19790.033375028775, -181899.30104008925, -181881.03966486928, 0.054, 0.022, 0.984, 192.0, 0.0, 0.0, 0.0, 0.0, 0.0, 0.0, 0.0, 0.0, 0.0, 1.708991199274002E9, 0.0, 2024-02-26 18:46:39.274
121.0, 187500.0, 187500.0, 187500.0, -182258.44886999714, 187500.0, 18982.95658623655, -181796.19244291694, -181766.88930593603, 0.054, 0.022, 0.984, 192.0, 0.0, 0.0, 0.0, 0.0, 0.0, 0.0, 0.0, 0.0, 0.0, 1.708991199278059E9, 0.0, 2024-02-26 18:46:39.278
122.0, 187500.0, 187500.0, 187500.0, -182181.9612004711, 187500.0, 18770.883234844594, -181758.5968087431, -181735.6415671875, 0.054, 0.022, 0.984, 192.0, 0.0, 0.0, 0.0, 0.0, 0.0, 0.0, 0.0, 0.0, 0.0, 1.708991199282042E9, 0.0, 2024-02-26 18:46:39.282
123.0, 187500.0, 187500.0, 187500.0, -182252.3244920164, 187500.0, 19286.78384861754, -181827.19431247644, -181807.03303897777, 0.054, 0.022, 0.984, 192.0, 0.0, 0.0, 0.0, 0.0, 0.0, 0.0, 0.0, 0.0, 0.0, 1.70899119928506E9, 0.0, 2024-02-26 18:46:39.285
124.0, 187500.0, 187500.0, 187500.0, -182336.74703082407, 187500.0, 19745.15107216252, -181925.27376714634, -181904.97838318092, 0.054, 0.022, 0.984, 192.0, 0.0, 0.0, 0.0, 0.0, 0.0, 0.0, 0.0, 0.0, 0.0, 1.708991199289053E9, 0.0, 2024-02-26 18:46:39.289
125.0, 187500.0, 187500.0, 187500.0, -182184.17402317215, 187500.0, 18951.3735713212, -181807.4577221224, -181787.94464921294, 0.054, 0.022, 0.984, 192.0, 0.0, 0.0, 0.0, 0.0, 0.0, 0.0, 0.0, 0.0, 0.0, 1.708991199293051E9, 0.0, 2024-02-26 18:46:39.293
126.0, 187500.0, 187500.0, 187500.0, -182089.6261441262, 187500.0, 18578.61352904004, -181740.71541317887, -181722.7446106368, 0.054, 0.022, 0.984, 192.0, 0.0, 0.0, 0.0, 0.0, 0.0, 0.0, 0.0, 0.0, 0.0, 1.708991199297117E9, 0.0, 2024-02-26 18:46:39.297
127.0, 187500.0, 187500.0, 187500.0, -182140.11873485075, 187500.0, 18932.46399551201, -181796.81829176168, -181778.78043398625, 0.062, 0.02, 0.984, 192.0, 1.0, 240.0, 0.0, 160.0, 30.0, 192.0, 0.0, 0.0, 0.0, 1.708991199301055E9, 0.0, 2024-02-26 18:46:39.301
128.0, 187500.0, 187500.0, 187500.0, -182265.22144856708, 187500.0, 19527.266267212184, -181937.0978399632, -181919.37290661014, 0.062, 0.02, 0.984, 192.0, 0.0, 0.0, 0.0, 0.0, 0.0, 0.0, 0.0, 0.0, 0.0, 1.708991199306052E9, 0.0, 2024-02-26 18:46:39.306
129.0, 187500.0, 187500.0, 187500.0, -182149.17119135516, 187500.0, 18813.53036326532, -181832.424620679, -181813.78326580327, 0.062, 0.02, 0.984, 192.0, 0.0, 0.0, 0.0, 0.0, 0.0, 0.0, 0.0, 0.0, 0.0, 1.708991199310053E9, 0.0, 2024-02-26 18:46:39.310
130.0, 187500.0, 187500.0, 187500.0, -182038.7759254904, 187500.0, 18256.94957458372, -181747.30917779318, -181729.22661652885, 0.062, 0.02, 0.984, 192.0, 0.0, 0.0, 0.0, 0.0, 0.0, 0.0, 0.0, 0.0, 0.0, 1.708991199313058E9, 0.0, 2024-02-26 18:46:39.313
131.0, 187500.0, 187500.0, 187500.0, -182052.0752134413, 187500.0, 18446.626478031456, -181784.21190788888, -181763.9612274124, 0.062, 0.02, 0.984, 192.0, 0.0, 0.0, 0.0, 0.0, 0.0, 0.0, 0.0, 0.0, 0.0, 1.708991199317051E9, 0.0, 2024-02-26 18:46:39.317
132.0, 187500.0, 187500.0, 187500.0, -182183.83874700533, 187500.0, 19123.50435537152, -181925.83256075773, -181908.0405721713, 0.062, 0.02, 0.984, 192.0, 0.0, 0.0, 0.0, 0.0, 0.0, 0.0, 0.0, 0.0, 0.0, 1.708991199321052E9, 0.0, 2024-02-26 18:46:39.321
133.0, 187500.0, 187500.0, 187500.0, -182102.97013556602, 187500.0, 18614.488078890812, -181856.85507736864, -181838.23607423736, 0.062, 0.02, 0.984, 192.0, 0.0, 0.0, 0.0, 0.0, 0.0, 0.0, 0.0, 0.0, 0.0, 1.708991199325065E9, 0.0, 2024-02-26 18:46:39.325
134.0, 187500.0, 187500.0, 187500.0, -181973.01709330286, 187500.0, 17947.869652255733, -181748.4938202493, -181729.71835490686, 0.062, 0.02, 0.984, 192.0, 0.0, 0.0, 0.0, 0.0, 0.0, 0.0, 0.0, 0.0, 0.0, 1.708991199329063E9, 0.0, 2024-02-26 18:46:39.329
135.0, 187500.0, 187500.0, 187500.0, -181976.16868927106, 187500.0, 18042.75280746851, -181763.49184077882, -181746.28099754822, 0.062, 0.02, 0.984, 192.0, 0.0, 0.0, 0.0, 0.0, 0.0, 0.0, 0.0, 0.0, 0.0, 1.708991199334072E9, 0.0, 2024-02-26 18:46:39.334
136.0, 187500.0, 187500.0, 187500.0, -182098.00804829694, 187500.0, 18759.57325215021, -181897.7364179774, -181881.01731312482, 0.062, 0.02, 0.984, 192.0, 0.0, 0.0, 0.0, 0.0, 0.0, 0.0, 0.0, 0.0, 0.0, 1.708991199338097E9, 0.0, 2024-02-26 18:46:39.338
137.0, 187500.0, 187500.0, 187500.0, -182061.35118739025, 187500.0, 18535.385255263478, -181875.54113573328, -181858.39734773606, 0.06, 0.018000000000000002, 0.984, 192.0, 1.0, 224.0, 0.0, 144.0, 30.0, 192.0, 0.0, 0.0, 0.0, 1.708991199341113E9, 0.0, 2024-02-26 18:46:39.341
138.0, 187500.0, 187500.0, 187500.0, -181908.6887727605, 187500.0, 17803.678548774547, -181764.14004136802, -181746.72803243733, 0.06, 0.018000000000000002, 0.984, 192.0, 0.0, 0.0, 0.0, 0.0, 0.0, 0.0, 0.0, 0.0, 0.0, 1.708991199345117E9, 0.0, 2024-02-26 18:46:39.345
139.0, 187500.0, 187500.0, 187500.0, -181882.40312128107, 187500.0, 17832.08761597724, -181750.86310516158, -181734.27811077575, 0.06, 0.018000000000000002, 0.984, 192.0, 0.0, 0.0, 0.0, 0.0, 0.0, 0.0, 0.0, 0.0, 0.0, 1.708991199349107E9, 0.0, 2024-02-26 18:46:39.349
140.0, 187500.0, 187500.0, 187500.0, -181998.207509304, 187500.0, 18578.01003193975, -181876.9716473784, -181861.90657161555, 0.06, 0.018000000000000002, 0.984, 192.0, 0.0, 0.0, 0.0, 0.0, 0.0, 0.0, 0.0, 0.0, 0.0, 1.708991199353111E9, 0.0, 2024-02-26 18:46:39.353
141.0, 187500.0, 187500.0, 187500.0, -182007.7070006975, 187500.0, 18668.154617328004, -181900.4409790565, -181883.61011548163, 0.06, 0.018000000000000002, 0.984, 192.0, 0.0, 0.0, 0.0, 0.0, 0.0, 0.0, 0.0, 0.0, 0.0, 1.708991199357104E9, 0.0, 2024-02-26 18:46:39.357
142.0, 187500.0, 187500.0, 187500.0, -181845.45568769643, 187500.0, 17912.44213729407, -181782.22260263236, -181761.0107971443, 0.06, 0.018000000000000002, 0.984, 192.0, 0.0, 0.0, 0.0, 0.0, 0.0, 0.0, 0.0, 0.0, 0.0, 1.708991199362098E9, 0.0, 2024-02-26 18:46:39.362
143.0, 187500.0, 187500.0, 187500.0, -181784.48012882235, 187500.0, 17844.604592872216, -181750.7960499282, -181732.55702645268, 0.06, 0.018000000000000002, 0.984, 192.0, 0.0, 0.0, 0.0, 0.0, 0.0, 0.0, 0.0, 0.0, 0.0, 1.708991199366131E9, 0.0, 2024-02-26 18:46:39.366
144.0, 187500.0, 187500.0, 187500.0, -181875.1164525886, 187500.0, 18516.542734687657, -181844.6733766405, -181827.50723689882, 0.06, 0.018000000000000002, 0.984, 192.0, 0.0, 0.0, 0.0, 0.0, 0.0, 0.0, 0.0, 0.0, 0.0, 1.708991199369124E9, 0.0, 2024-02-26 18:46:39.369
145.0, 187500.0, 187500.0, 187500.0, -181926.16783692455, 187500.0, 18876.07054425127, -181913.24852862937, -181894.65187724258, 0.06, 0.018000000000000002, 0.984, 192.0, 0.0, 0.0, 0.0, 0.0, 0.0, 0.0, 0.0, 0.0, 0.0, 1.7089911993731E9, 0.0, 2024-02-26 18:46:39.373
146.0, 187500.0, 187500.0, 187500.0, -181646.86043821104, 187500.0, 18104.66713960971, -181824.04271650824, -181779.94272469793, 0.06, 0.018000000000000002, 0.984, 192.0, 0.0, 0.0, 0.0, 0.0, 0.0, 0.0, 0.0, 0.0, 0.0, 1.708991199377141E9, 0.0, 2024-02-26 18:46:39.377
147.0, 187500.0, 187500.0, 187500.0, -181535.9957857127, 187500.0, 17940.426521352118, -181778.73573049734, -181750.88545690602, 0.052000000000000005, 0.016, 0.984, 192.0, 1.0, 160.0, 0.0, 128.0, 30.0, 192.0, 0.0, 0.0, 0.0, 1.708991199381157E9, 0.0, 2024-02-26 18:46:39.381
148.0, 187500.0, 187500.0, 187500.0, -181965.68572112152, 187500.0, 18528.14329005996, -181833.18457999045, -181814.14089371456, 0.052000000000000005, 0.016, 0.984, 192.0, 0.0, 0.0, 0.0, 0.0, 0.0, 0.0, 0.0, 0.0, 0.0, 1.708991199385148E9, 0.0, 2024-02-26 18:46:39.385
149.0, 187500.0, 187500.0, 187500.0, -182412.78766546104, 187500.0, 19117.089404712846, -181937.5448748523, -181917.07067693124, 0.052000000000000005, 0.016, 0.984, 192.0, 0.0, 0.0, 0.0, 0.0, 0.0, 0.0, 0.0, 0.0, 0.0, 1.708991199390152E9, 0.0, 2024-02-26 18:46:39.390
150.0, 187500.0, 187500.0, 187500.0, -182296.536242549, 187500.0, 18424.431195787336, -181812.12923671358, -181788.39168410204, 0.052000000000000005, 0.016, 0.984, 192.0, 0.0, 0.0, 0.0, 0.0, 0.0, 0.0, 0.0, 0.0, 0.0, 1.708991199394143E9, 0.0, 2024-02-26 18:46:39.394
151.0, 187500.0, 187500.0, 187500.0, -182183.16819467166, 187500.0, 18087.657462079223, -181749.90198015, -181725.44917171588, 0.052000000000000005, 0.016, 0.984, 192.0, 0.0, 0.0, 0.0, 0.0, 0.0, 0.0, 0.0, 0.0, 0.0, 1.708991199397139E9, 0.0, 2024-02-26 18:46:39.397
152.0, 187500.0, 187500.0, 187500.0, -182231.1126865283, 187500.0, 18501.164734502403, -181806.92128025548, -181782.66963752147, 0.052000000000000005, 0.016, 0.984, 192.0, 0.0, 0.0, 0.0, 0.0, 0.0, 0.0, 0.0, 0.0, 0.0, 1.708991199401145E9, 0.0, 2024-02-26 18:46:39.401
153.0, 187500.0, 187500.0, 187500.0, -182354.44961243268, 187500.0, 19205.602312755862, -181941.50113362088, -181918.52354032084, 0.052000000000000005, 0.016, 0.984, 192.0, 0.0, 0.0, 0.0, 0.0, 0.0, 0.0, 0.0, 0.0, 0.0, 1.708991199405154E9, 0.0, 2024-02-26 18:46:39.405
154.0, 187500.0, 187500.0, 187500.0, -182221.9037678127, 187500.0, 18615.82918355813, -181849.43429820947, -181819.72882982838, 0.052000000000000005, 0.016, 0.984, 192.0, 0.0, 0.0, 0.0, 0.0, 0.0, 0.0, 0.0, 0.0, 0.0, 1.70899119940914E9, 0.0, 2024-02-26 18:46:39.409
155.0, 187500.0, 187500.0, 187500.0, -182074.7175305745, 187500.0, 18114.792479847965, -181751.6007127286, -181721.33645073613, 0.052000000000000005, 0.016, 0.984, 192.0, 0.0, 0.0, 0.0, 0.0, 0.0, 0.0, 0.0, 0.0, 0.0, 1.708991199413185E9, 0.0, 2024-02-26 18:46:39.413
156.0, 187500.0, 187500.0, 187500.0, -182097.0245715409, 187500.0, 18374.430343440814, -181768.87861119254, -181743.62113995806, 0.052000000000000005, 0.016, 0.984, 192.0, 0.0, 0.0, 0.0, 0.0, 0.0, 0.0, 0.0, 0.0, 0.0, 1.708991199417192E9, 0.0, 2024-02-26 18:46:39.417
157.0, 187500.0, 187500.0, 187500.0, -182231.62677665078, 187500.0, 19139.105873001325, -181919.05998218775, -181893.22136559742, 0.052000000000000005, 0.016, 0.982, 192.0, 1.0, 160.0, 0.0, 128.0, 30.0, 176.0, 0.0, 0.0, 0.0, 1.708991199422206E9, 0.0, 2024-02-26 18:46:39.422
158.0, 187500.0, 187500.0, 187500.0, -182149.1488396107, 187500.0, 18751.191347979468, -181857.79385063576, -181832.20110323443, 0.052000000000000005, 0.016, 0.982, 192.0, 0.0, 0.0, 0.0, 0.0, 0.0, 0.0, 0.0, 0.0, 0.0, 1.708991199426189E9, 0.0, 2024-02-26 18:46:39.426
159.0, 187500.0, 187500.0, 187500.0, -181993.24542203493, 187500.0, 18111.886753068775, -181763.0001024008, -181738.07790733315, 0.052000000000000005, 0.016, 0.982, 192.0, 0.0, 0.0, 0.0, 0.0, 0.0, 0.0, 0.0, 0.0, 0.0, 1.708991199429182E9, 0.0, 2024-02-26 18:46:39.429
160.0, 187500.0, 187500.0, 187500.0, -181993.46893947947, 187500.0, 18247.874766334866, -181771.22554436035, -181751.13132609503, 0.052000000000000005, 0.016, 0.982, 192.0, 0.0, 0.0, 0.0, 0.0, 0.0, 0.0, 0.0, 0.0, 0.0, 1.7089911994332E9, 0.0, 2024-02-26 18:46:39.433
161.0, 187500.0, 187500.0, 187500.0, -182104.7806268669, 187500.0, 19008.392871426688, -181891.76850220782, -181872.3671880206, 0.052000000000000005, 0.016, 0.982, 192.0, 0.0, 0.0, 0.0, 0.0, 0.0, 0.0, 0.0, 0.0, 0.0, 1.708991199437192E9, 0.0, 2024-02-26 18:46:39.437
162.0, 187500.0, 187500.0, 187500.0, -182062.4240711241, 187500.0, 18889.146314757625, -181866.28751352878, -181845.18746676296, 0.052000000000000005, 0.016, 0.982, 192.0, 0.0, 0.0, 0.0, 0.0, 0.0, 0.0, 0.0, 0.0, 0.0, 1.70899119944121E9, 0.0, 2024-02-26 18:46:39.441
163.0, 187500.0, 187500.0, 187500.0, -181895.41183655403, 187500.0, 18165.44153278369, -181776.58996302963, -181743.5987882136, 0.052000000000000005, 0.016, 0.982, 192.0, 0.0, 0.0, 0.0, 0.0, 0.0, 0.0, 0.0, 0.0, 0.0, 1.708991199445199E9, 0.0, 2024-02-26 18:46:39.445
164.0, 187500.0, 187500.0, 187500.0, -181855.37986223458, 187500.0, 18167.83316944041, -181760.67552097744, -181728.891340362, 0.052000000000000005, 0.016, 0.982, 192.0, 0.0, 0.0, 0.0, 0.0, 0.0, 0.0, 0.0, 0.0, 0.0, 1.708991199449183E9, 0.0, 2024-02-26 18:46:39.449
165.0, 187500.0, 187500.0, 187500.0, -181971.96656131346, 187500.0, 18871.30962268229, -181877.86571715662, -181850.59658892115, 0.052000000000000005, 0.016, 0.982, 192.0, 0.0, 0.0, 0.0, 0.0, 0.0, 0.0, 0.0, 0.0, 0.0, 1.70899119945223E9, 0.0, 2024-02-26 18:46:39.452
166.0, 187500.0, 187500.0, 187500.0, -181983.12008179666, 187500.0, 18982.196626925066, -181905.22425236992, -181878.5362694903, 0.052000000000000005, 0.016, 0.982, 192.0, 0.0, 0.0, 0.0, 0.0, 0.0, 0.0, 0.0, 0.0, 0.0, 1.708991199457222E9, 0.0, 2024-02-26 18:46:39.457
167.0, 187500.0, 187500.0, 187500.0, -181809.24586167882, 187500.0, 18174.024602654532, -181763.3577303121, -181748.06913710467, 0.052000000000000005, 0.016, 0.98, 192.0, 1.0, 160.0, 0.0, 128.0, 30.0, 160.0, 0.0, 0.0, 0.0, 1.708991199461223E9, 0.0, 2024-02-26 18:46:39.461
168.0, 187500.0, 187500.0, 187500.0, -181771.02437866025, 187500.0, 18040.919964423178, -181734.92631136495, -181721.51526469176, 0.052000000000000005, 0.016, 0.98, 192.0, 0.0, 0.0, 0.0, 0.0, 0.0, 0.0, 0.0, 0.0, 0.0, 1.708991199465226E9, 0.0, 2024-02-26 18:46:39.465
169.0, 187500.0, 187500.0, 187500.0, -181851.20008602145, 187500.0, 18614.935113779917, -181826.79198107624, -181811.68220182447, 0.052000000000000005, 0.016, 0.98, 192.0, 0.0, 0.0, 0.0, 0.0, 0.0, 0.0, 0.0, 0.0, 0.0, 1.708991199469229E9, 0.0, 2024-02-26 18:46:39.469
170.0, 187500.0, 187500.0, 187500.0, -181914.50022631887, 187500.0, 18983.358917636742, -181903.52551979132, -181888.81807193972, 0.052000000000000005, 0.016, 0.98, 192.0, 0.0, 0.0, 0.0, 0.0, 0.0, 0.0, 0.0, 0.0, 0.0, 1.708991199473234E9, 0.0, 2024-02-26 18:46:39.473
171.0, 187500.0, 187500.0, 187500.0, -181748.71733769387, 187500.0, 18202.612483812867, -181790.17982365846, -181773.661884506, 0.052000000000000005, 0.016, 0.98, 192.0, 0.0, 0.0, 0.0, 0.0, 0.0, 0.0, 0.0, 0.0, 0.0, 1.708991199477237E9, 0.0, 2024-02-26 18:46:39.477
172.0, 187500.0, 187500.0, 187500.0, -181534.07353568956, 187500.0, 17921.49459379847, -181730.52301770725, -181710.92053781994, 0.052000000000000005, 0.016, 0.98, 192.0, 0.0, 0.0, 0.0, 0.0, 0.0, 0.0, 0.0, 0.0, 0.0, 1.708991199481239E9, 0.0, 2024-02-26 18:46:39.481
173.0, 187500.0, 187500.0, 187500.0, -181808.77647504528, 187500.0, 18406.236875800714, -181787.58702130165, -181767.89513443652, 0.052000000000000005, 0.016, 0.98, 192.0, 0.0, 0.0, 0.0, 0.0, 0.0, 0.0, 0.0, 0.0, 0.0, 1.708991199485237E9, 0.0, 2024-02-26 18:46:39.485
174.0, 187500.0, 187500.0, 187500.0, -182319.5361875935, 187500.0, 18995.920598020628, -181895.21067085394, -181875.9658188779, 0.052000000000000005, 0.016, 0.98, 192.0, 0.0, 0.0, 0.0, 0.0, 0.0, 0.0, 0.0, 0.0, 0.0, 1.70899119948923E9, 0.0, 2024-02-26 18:46:39.489
175.0, 187500.0, 187500.0, 187500.0, -182272.79868993745, 187500.0, 18299.976682660184, -181819.30414668372, -181787.78818700174, 0.052000000000000005, 0.016, 0.98, 192.0, 0.0, 0.0, 0.0, 0.0, 0.0, 0.0, 0.0, 0.0, 0.0, 1.708991199493227E9, 0.0, 2024-02-26 18:46:39.493
176.0, 187500.0, 187500.0, 187500.0, -182138.35294703877, 187500.0, 17894.001948118443, -181790.29158238074, -181752.8524104181, 0.052000000000000005, 0.014, 0.98, 192.0, 1.0, 160.0, 0.0, 112.0, 30.0, 160.0, 0.0, 0.0, 0.0, 1.708991199497233E9, 0.0, 2024-02-26 18:46:39.497
177.0, 187500.0, 187500.0, 187500.0, -182194.36641864377, 187500.0, 18275.680336437268, -181832.44697242344, -181806.8542250221, 0.052000000000000005, 0.014, 0.98, 192.0, 0.0, 0.0, 0.0, 0.0, 0.0, 0.0, 0.0, 0.0, 0.0, 1.708991199502226E9, 0.0, 2024-02-26 18:46:39.502
178.0, 187500.0, 187500.0, 187500.0, -182325.01236498504, 187500.0, 18993.774830552917, -181974.3581979702, -181948.9442645245, 0.052000000000000005, 0.014, 0.98, 192.0, 0.0, 0.0, 0.0, 0.0, 0.0, 0.0, 0.0, 0.0, 0.0, 1.70899119950527E9, 0.0, 2024-02-26 18:46:39.505
179.0, 187500.0, 187500.0, 187500.0, -182201.18370070265, 187500.0, 18444.123082652462, -181860.85603962615, -181834.1680567465, 0.052000000000000005, 0.014, 0.98, 192.0, 0.0, 0.0, 0.0, 0.0, 0.0, 0.0, 0.0, 0.0, 0.0, 1.70899119950828E9, 0.0, 2024-02-26 18:46:39.508
180.0, 187500.0, 187500.0, 187500.0, -182062.96051299103, 187500.0, 17902.920294156113, -181732.37821249705, -181703.9914970388, 0.052000000000000005, 0.014, 0.98, 192.0, 0.0, 0.0, 0.0, 0.0, 0.0, 0.0, 0.0, 0.0, 0.0, 1.708991199513276E9, 0.0, 2024-02-26 18:46:39.513
181.0, 187500.0, 187500.0, 187500.0, -182077.80207130936, 187500.0, 18106.34352044386, -181761.18961109992, -181731.90882586347, 0.052000000000000005, 0.014, 0.98, 192.0, 0.0, 0.0, 0.0, 0.0, 0.0, 0.0, 0.0, 0.0, 0.0, 1.708991199517295E9, 0.0, 2024-02-26 18:46:39.517
182.0, 187500.0, 187500.0, 187500.0, -182206.88339553875, 187500.0, 18859.910233010083, -181907.32531634872, -181877.4186822675, 0.052000000000000005, 0.014, 0.98, 192.0, 0.0, 0.0, 0.0, 0.0, 0.0, 0.0, 0.0, 0.0, 0.0, 1.708991199521285E9, 0.0, 2024-02-26 18:46:39.521
183.0, 187500.0, 187500.0, 187500.0, -182149.4841157775, 187500.0, 18523.76234814672, -181865.39344375057, -181837.54317015925, 0.052000000000000005, 0.014, 0.98, 192.0, 0.0, 0.0, 0.0, 0.0, 0.0, 0.0, 0.0, 0.0, 0.0, 1.708991199527267E9, 0.0, 2024-02-26 18:46:39.527
184.0, 187500.0, 187500.0, 187500.0, -181996.03939009184, 187500.0, 17827.81843278628, -181743.26351204677, -181728.4443054729, 0.052000000000000005, 0.014, 0.98, 192.0, 0.0, 0.0, 0.0, 0.0, 0.0, 0.0, 0.0, 0.0, 0.0, 1.708991199530275E9, 0.0, 2024-02-26 18:46:39.530
185.0, 187500.0, 187500.0, 187500.0, -181982.44952946302, 187500.0, 17894.15841032963, -181737.385003255, -181722.40933446996, 0.052000000000000005, 0.014, 0.98, 192.0, 0.0, 0.0, 0.0, 0.0, 0.0, 0.0, 0.0, 0.0, 0.0, 1.708991199533266E9, 0.0, 2024-02-26 18:46:39.533
186.0, 187500.0, 187500.0, 187500.0, -182111.70966764804, 187500.0, 18632.101253521592, -181879.85502241316, -181863.40413849405, 0.052000000000000005, 0.016, 0.98, 192.0, 1.0, 160.0, 0.0, 128.0, 30.0, 160.0, 0.0, 0.0, 0.0, 1.708991199536269E9, 0.0, 2024-02-26 18:46:39.536
187.0, 187500.0, 187500.0, 187500.0, -182094.8341005843, 187500.0, 18544.035380367684, -181876.3681502781, -181859.31376925873, 0.052000000000000005, 0.016, 0.98, 192.0, 0.0, 0.0, 0.0, 0.0, 0.0, 0.0, 0.0, 0.0, 0.0, 1.708991199541314E9, 0.0, 2024-02-26 18:46:39.541
188.0, 187500.0, 187500.0, 187500.0, -181928.76063928136, 187500.0, 17769.480379757926, -181759.02149188775, -181738.61434920007, 0.052000000000000005, 0.016, 0.98, 192.0, 0.0, 0.0, 0.0, 0.0, 0.0, 0.0, 0.0, 0.0, 0.0, 1.708991199545319E9, 0.0, 2024-02-26 18:46:39.545
189.0, 187500.0, 187500.0, 187500.0, -181901.11153139014, 187500.0, 17725.112167014144, -181752.58418948462, -181737.139134066, 0.052000000000000005, 0.016, 0.98, 192.0, 0.0, 0.0, 0.0, 0.0, 0.0, 0.0, 0.0, 0.0, 0.0, 1.708991199549322E9, 0.0, 2024-02-26 18:46:39.549
190.0, 187500.0, 187500.0, 187500.0, -182017.2511955799, 187500.0, 18389.853047114975, -181875.74230143338, -181861.10190881515, 0.052000000000000005, 0.016, 0.98, 192.0, 0.0, 0.0, 0.0, 0.0, 0.0, 0.0, 0.0, 0.0, 0.0, 1.70899119955332E9, 0.0, 2024-02-26 18:46:39.553
191.0, 187500.0, 187500.0, 187500.0, -182057.73020478847, 187500.0, 18578.39001159549, -181930.14644743758, -181915.37194435264, 0.052000000000000005, 0.016, 0.98, 192.0, 0.0, 0.0, 0.0, 0.0, 0.0, 0.0, 0.0, 0.0, 0.0, 1.708991199557323E9, 0.0, 2024-02-26 18:46:39.557
192.0, 187500.0, 187500.0, 187500.0, -181895.21067085394, 187500.0, 17768.027516368333, -181777.43932931894, -181761.39077680002, 0.052000000000000005, 0.016, 0.98, 192.0, 0.0, 0.0, 0.0, 0.0, 0.0, 0.0, 0.0, 0.0, 0.0, 1.708991199561326E9, 0.0, 2024-02-26 18:46:39.561
193.0, 187500.0, 187500.0, 187500.0, -181834.23511197985, 187500.0, 17602.848124843615, -181727.66199441697, -181710.29468897518, 0.052000000000000005, 0.016, 0.98, 192.0, 0.0, 0.0, 0.0, 0.0, 0.0, 0.0, 0.0, 0.0, 0.0, 1.708991199564333E9, 0.0, 2024-02-26 18:46:39.564
194.0, 187500.0, 187500.0, 187500.0, -181922.70331653397, 187500.0, 18180.30544284647, -181829.7200595999, -181812.2186436914, 0.052000000000000005, 0.016, 0.98, 192.0, 0.0, 0.0, 0.0, 0.0, 0.0, 0.0, 0.0, 0.0, 0.0, 1.70899119956932E9, 0.0, 2024-02-26 18:46:39.569
195.0, 187500.0, 187500.0, 187500.0, -182008.73518094246, 187500.0, 18619.96425628236, -181930.77229628235, -181913.56145305175, 0.052000000000000005, 0.016, 0.98, 192.0, 0.0, 0.0, 0.0, 0.0, 0.0, 0.0, 0.0, 0.0, 0.0, 1.708991199573337E9, 0.0, 2024-02-26 18:46:39.573
196.0, 187500.0, 187500.0, 187500.0, -181835.35269920263, 187500.0, 17829.986551998445, -181783.29548636623, -181767.42574780295, 0.054, 0.014, 0.984, 192.0, 1.0, 176.0, 0.0, 112.0, 30.0, 192.0, 0.0, 0.0, 0.0, 1.708991199577369E9, 0.0, 2024-02-26 18:46:39.577
197.0, 187500.0, 187500.0, 187500.0, -181751.1089743506, 187500.0, 17538.85508046807, -181743.73289868032, -181724.59980542658, 0.054, 0.014, 0.984, 192.0, 0.0, 0.0, 0.0, 0.0, 0.0, 0.0, 0.0, 0.0, 0.0, 1.708991199581363E9, 0.0, 2024-02-26 18:46:39.581
198.0, 187500.0, 187500.0, 187500.0, -181832.80460033473, 187500.0, 18003.614902927267, -181835.3303474582, -181817.0689722382, 0.054, 0.014, 0.984, 192.0, 0.0, 0.0, 0.0, 0.0, 0.0, 0.0, 0.0, 0.0, 0.0, 1.708991199584354E9, 0.0, 2024-02-26 18:46:39.584
199.0, 187500.0, 187500.0, 187500.0, -181952.43113665952, 187500.0, 18620.031311515726, -181965.2610379769, -181948.83250580222, 0.054, 0.014, 0.984, 192.0, 0.0, 0.0, 0.0, 0.0, 0.0, 0.0, 0.0, 0.0, 0.0, 1.708991199588353E9, 0.0, 2024-02-26 18:46:39.588
200.0, 187500.0, 187500.0, 187500.0, -181818.45478039442, 187500.0, 17951.825911024323, -181841.3206149722, -181823.5733298747, 0.054, 0.014, 0.984, 192.0, 0.0, 0.0, 0.0, 0.0, 0.0, 0.0, 0.0, 0.0, 0.0, 1.708991199592355E9, 0.0, 2024-02-26 18:46:39.592
201.0, 187500.0, 187500.0, 187500.0, -181705.4443604284, 187500.0, 17523.499432027274, -181739.150791067, -181719.70477339087, 0.054, 0.014, 0.984, 192.0, 0.0, 0.0, 0.0, 0.0, 0.0, 0.0, 0.0, 0.0, 0.0, 1.708991199597367E9, 0.0, 2024-02-26 18:46:39.597
202.0, 187500.0, 187500.0, 187500.0, -181741.3859655125, 187500.0, 17855.378133699673, -181788.07875967966, -181768.0068931588, 0.054, 0.014, 0.984, 192.0, 0.0, 0.0, 0.0, 0.0, 0.0, 0.0, 0.0, 0.0, 0.0, 1.708991199601372E9, 0.0, 2024-02-26 18:46:39.601
203.0, 187500.0, 187500.0, 187500.0, -181864.40996699454, 187500.0, 18599.378299639022, -181925.56433982425, -181905.17954888102, 0.054, 0.014, 0.984, 192.0, 0.0, 0.0, 0.0, 0.0, 0.0, 0.0, 0.0, 0.0, 0.0, 1.708991199605355E9, 0.0, 2024-02-26 18:46:39.605
204.0, 187500.0, 187500.0, 187500.0, -181688.56879336463, 187500.0, 18115.284218225985, -181845.34392897415, -181824.2215304639, 0.054, 0.014, 0.984, 192.0, 0.0, 0.0, 0.0, 0.0, 0.0, 0.0, 0.0, 0.0, 0.0, 1.708991199609361E9, 0.0, 2024-02-26 18:46:39.609
205.0, 187500.0, 187500.0, 187500.0, -181469.81227038053, 187500.0, 17554.590708564607, -181754.48408776333, -181728.51136070627, 0.054, 0.014, 0.984, 192.0, 0.0, 0.0, 0.0, 0.0, 0.0, 0.0, 0.0, 0.0, 0.0, 1.708991199612405E9, 0.0, 2024-02-26 18:46:39.612
206.0, 187500.0, 187500.0, 187500.0, -181754.77466044124, 187500.0, 17772.073182114742, -181759.49087852132, -181742.637663202, 0.058, 0.006, 0.982, 192.0, 1.0, 208.0, 0.0, 48.0, 30.0, 176.0, 0.0, 0.0, 0.0, 1.708991199616423E9, 0.0, 2024-02-26 18:46:39.616
207.0, 187500.0, 187500.0, 187500.0, -182321.32432714992, 187500.0, 18565.850682956065, -181905.06779015873, -181889.8239004402, 0.058, 0.006, 0.982, 192.0, 0.0, 0.0, 0.0, 0.0, 0.0, 0.0, 0.0, 0.0, 0.0, 1.708991199620416E9, 0.0, 2024-02-26 18:46:39.620
