%OpenBCI Raw EXG Data
%Number of channels = 8
%Sample Rate = 250 Hz
%Board = OpenBCI_GUI$BoardCytonSerial
Sample Index, EXG Channel 0, EXG Channel 1, EXG Channel 2, EXG Channel 3, EXG Channel 4, EXG Channel 5, EXG Channel 6, EXG Channel 7, Accel Channel 0, Accel Channel 1, Accel Channel 2, Other, Other, Other, Other, Other, Other, Other, Analog Channel 0, Analog Channel 1, Analog Channel 2, Timestamp, Other, Timestamp (Formatted)
121.0, 77378.87828098277, 77353.03966439243, -154549.0359722419, -116510.03259539994, 77412.04826975445, 77412.7188220881, -187500.02235174447, -187500.02235174447, 0.0, 0.0, 0.0, 192.0, 0.0, 0.0, 0.0, 0.0, 0.0, 0.0, 0.0, 0.0, 0.0, 1.70899175231421E9, 0.0, 2024-02-26 18:55:52.314
122.0, 77365.42253082068, 77339.6509694637, -154548.05249548584, -116508.95971166609, 77398.68192657018, 77399.35247890383, -187500.02235174447, -187500.02235174447, 0.0, 0.0, 0.0, 192.0, 0.0, 0.0, 0.0, 0.0, 0.0, 0.0, 0.0, 0.0, 0.0, 1.708991752314238E9, 0.0, 2024-02-26 18:55:52.314
123.0, 77350.73743471353, 77324.94352161212, -154545.6385070847, -116506.746888965, 77383.92977522967, 77384.60032756333, -187500.02235174447, -187500.02235174447, 0.048, 0.01, 0.98, 192.0, 1.0, 128.0, 0.0, 80.0, 30.0, 160.0, 0.0, 0.0, 0.0, 1.708991752314257E9, 0.0, 2024-02-26 18:55:52.314
0.0, 0.0, 0.0, 0.0, 0.0, 0.0, 0.0, 0.0, 0.0, 0.058, 0.014, 0.976, 192.0, 1.0, 208.0, 0.0, 112.0, 30.0, 128.0, 0.0, 0.0, 0.0, 1.70899175241121E9, 0.0, 2024-02-26 18:55:52.411
1.0, 187500.0, 187500.0, 187500.0, 187500.0, 187500.0, 187500.0, 10477.424916914097, -181419.61025233392, 0.058, 0.014, 0.976, 192.0, 0.0, 0.0, 0.0, 0.0, 0.0, 0.0, 0.0, 0.0, 0.0, 1.708991752427209E9, 0.0, 2024-02-26 18:55:52.427
2.0, 187500.0, 187500.0, 187500.0, 187500.0, 187500.0, 187500.0, 10168.859084708582, -181386.4626153067, 0.058, 0.014, 0.976, 192.0, 0.0, 0.0, 0.0, 0.0, 0.0, 0.0, 0.0, 0.0, 0.0, 1.70899175243122E9, 0.0, 2024-02-26 18:55:52.431
3.0, 187500.0, 187500.0, 187500.0, 187500.0, 187500.0, 187500.0, 10427.602878523217, -181378.55009776953, 0.058, 0.014, 0.976, 192.0, 0.0, 0.0, 0.0, 0.0, 0.0, 0.0, 0.0, 0.0, 0.0, 1.708991752434198E9, 0.0, 2024-02-26 18:55:52.434
4.0, 187500.0, 187500.0, 187500.0, 187500.0, 187500.0, 187500.0, 11142.881052837498, -181460.64805515387, 0.058, 0.014, 0.976, 192.0, 0.0, 0.0, 0.0, 0.0, 0.0, 0.0, 0.0, 0.0, 0.0, 1.708991752438196E9, 0.0, 2024-02-26 18:55:52.438
5.0, 187500.0, 187500.0, 187500.0, 187500.0, 187500.0, 187500.0, 11043.393438266927, -181442.05140376705, 0.058, 0.014, 0.976, 192.0, 0.0, 0.0, 0.0, 0.0, 0.0, 0.0, 0.0, 0.0, 0.0, 1.708991752443194E9, 0.0, 2024-02-26 18:55:52.443
6.0, 187500.0, 187500.0, 187500.0, 187500.0, 187500.0, 187500.0, 10511.310161508341, -181368.73768195364, 0.058, 0.014, 0.976, 192.0, 0.0, 0.0, 0.0, 0.0, 0.0, 0.0, 0.0, 0.0, 0.0, 1.708991752447201E9, 0.0, 2024-02-26 18:55:52.447
7.0, 187500.0, 187500.0, 187500.0, 187500.0, 187500.0, 187500.0, 10609.210802222588, -181345.87184737588, 0.058, 0.014, 0.976, 192.0, 0.0, 0.0, 0.0, 0.0, 0.0, 0.0, 0.0, 0.0, 0.0, 1.708991752451199E9, 0.0, 2024-02-26 18:55:52.451
8.0, 187500.0, 187500.0, 187500.0, 187500.0, 187500.0, 187500.0, 11278.533789936757, -181433.11070598493, 0.06, 0.01, 0.98, 192.0, 1.0, 224.0, 0.0, 80.0, 30.0, 160.0, 0.0, 0.0, 0.0, 1.708991752455239E9, 0.0, 2024-02-26 18:55:52.455
9.0, 187500.0, 187500.0, 187500.0, 187500.0, 187500.0, 187500.0, 11407.235134510414, -181476.65190418388, 0.06, 0.01, 0.98, 192.0, 0.0, 0.0, 0.0, 0.0, 0.0, 0.0, 0.0, 0.0, 0.0, 1.708991752459241E9, 0.0, 2024-02-26 18:55:52.459
10.0, 187500.0, 187500.0, 187500.0, 187500.0, 187500.0, 187500.0, 10679.328224578885, -181390.48592930866, 0.06, 0.01, 0.98, 192.0, 0.0, 0.0, 0.0, 0.0, 0.0, 0.0, 0.0, 0.0, 0.0, 1.708991752464242E9, 0.0, 2024-02-26 18:55:52.464
11.0, 187500.0, 187500.0, 187500.0, 187500.0, 187500.0, 187500.0, 10438.845805984236, -181337.06526006048, 0.06, 0.01, 0.98, 192.0, 0.0, 0.0, 0.0, 0.0, 0.0, 0.0, 0.0, 0.0, 0.0, 1.708991752467235E9, 0.0, 2024-02-26 18:55:52.467
12.0, 187500.0, 187500.0, 187500.0, 187500.0, 187500.0, 187500.0, 10814.75744423359, -181406.2215574052, 0.06, 0.01, 0.98, 192.0, 0.0, 0.0, 0.0, 0.0, 0.0, 0.0, 0.0, 0.0, 0.0, 1.708991752471241E9, 0.0, 2024-02-26 18:55:52.471
13.0, 187500.0, 187500.0, 187500.0, 187500.0, 187500.0, 187500.0, 11094.467174347303, -181527.5468263086, 0.06, 0.01, 0.98, 192.0, 0.0, 0.0, 0.0, 0.0, 0.0, 0.0, 0.0, 0.0, 0.0, 1.708991752474236E9, 0.0, 2024-02-26 18:55:52.474
14.0, 187500.0, 187500.0, 187500.0, 187500.0, 187500.0, 187500.0, 10426.597050022729, -181409.19433941774, 0.06, 0.01, 0.98, 192.0, 0.0, 0.0, 0.0, 0.0, 0.0, 0.0, 0.0, 0.0, 0.0, 1.708991752478237E9, 0.0, 2024-02-26 18:55:52.478
15.0, 187500.0, 187500.0, 187500.0, 187500.0, 187500.0, 187500.0, 10200.799727535215, -181348.64346368832, 0.06, 0.01, 0.98, 192.0, 0.0, 0.0, 0.0, 0.0, 0.0, 0.0, 0.0, 0.0, 0.0, 1.708991752483235E9, 0.0, 2024-02-26 18:55:52.483
16.0, 187500.0, 187500.0, 187500.0, 187500.0, 187500.0, 187500.0, 10500.536620680883, -181397.28085962308, 0.06, 0.01, 0.98, 192.0, 0.0, 0.0, 0.0, 0.0, 0.0, 0.0, 0.0, 0.0, 0.0, 1.708991752487237E9, 0.0, 2024-02-26 18:55:52.487
17.0, 187500.0, 187500.0, 187500.0, 187500.0, 187500.0, 187500.0, 10818.534889046538, -181517.77911398164, 0.062, 0.01, 0.978, 192.0, 1.0, 240.0, 0.0, 80.0, 30.0, 144.0, 0.0, 0.0, 0.0, 1.708991752491234E9, 0.0, 2024-02-26 18:55:52.491
18.0, 187500.0, 187500.0, 187500.0, 187500.0, 187500.0, 187500.0, 10076.524028363709, -181410.8707202519, 0.062, 0.01, 0.978, 192.0, 0.0, 0.0, 0.0, 0.0, 0.0, 0.0, 0.0, 0.0, 0.0, 1.708991752495238E9, 0.0, 2024-02-26 18:55:52.495
19.0, 187500.0, 187500.0, 187500.0, 187500.0, 187500.0, 187500.0, 9643.168406864215, -181367.24011507514, 0.062, 0.01, 0.978, 192.0, 0.0, 0.0, 0.0, 0.0, 0.0, 0.0, 0.0, 0.0, 0.0, 1.708991752498281E9, 0.0, 2024-02-26 18:55:52.498
20.0, 187500.0, 187500.0, 187500.0, 187500.0, 187500.0, 187500.0, 9866.037650828082, -181377.11958612438, 0.062, 0.01, 0.978, 192.0, 0.0, 0.0, 0.0, 0.0, 0.0, 0.0, 0.0, 0.0, 0.0, 1.708991752502292E9, 0.0, 2024-02-26 18:55:52.502
21.0, 187500.0, 187500.0, 187500.0, 187500.0, 187500.0, 187500.0, 10507.532716695396, -181483.06685484253, 0.062, 0.01, 0.978, 192.0, 0.0, 0.0, 0.0, 0.0, 0.0, 0.0, 0.0, 0.0, 0.0, 1.708991752506286E9, 0.0, 2024-02-26 18:55:52.506
22.0, 187500.0, 187500.0, 187500.0, 187500.0, 187500.0, 187500.0, 10210.366274162088, -181413.1729499308, 0.062, 0.01, 0.978, 192.0, 0.0, 0.0, 0.0, 0.0, 0.0, 0.0, 0.0, 0.0, 0.0, 1.708991752511309E9, 0.0, 2024-02-26 18:55:52.511
23.0, 187500.0, 187500.0, 187500.0, 187500.0, 187500.0, 187500.0, 9915.077378163025, -181370.25760057662, 0.062, 0.01, 0.978, 192.0, 0.0, 0.0, 0.0, 0.0, 0.0, 0.0, 0.0, 0.0, 0.0, 1.708991752516292E9, 0.0, 2024-02-26 18:55:52.516
24.0, 187500.0, 187500.0, 187500.0, 187500.0, 187500.0, 187500.0, 10043.912833203416, -181353.13616432383, 0.062, 0.01, 0.978, 192.0, 0.0, 0.0, 0.0, 0.0, 0.0, 0.0, 0.0, 0.0, 0.0, 1.708991752519286E9, 0.0, 2024-02-26 18:55:52.519
25.0, 187500.0, 187500.0, 187500.0, 187500.0, 187500.0, 187500.0, 10431.045047169335, -181458.6811016418, 0.062, 0.01, 0.978, 192.0, 0.0, 0.0, 0.0, 0.0, 0.0, 0.0, 0.0, 0.0, 0.0, 1.708991752523286E9, 0.0, 2024-02-26 18:55:52.523
26.0, 187500.0, 187500.0, 187500.0, 187500.0, 187500.0, 187500.0, 9862.148447292859, -181434.00477576314, 0.062, 0.01, 0.978, 192.0, 0.0, 0.0, 0.0, 0.0, 0.0, 0.0, 0.0, 0.0, 0.0, 1.708991752526312E9, 0.0, 2024-02-26 18:55:52.526
27.0, 187500.0, 187500.0, 187500.0, 187500.0, 187500.0, 187500.0, 9176.553389615225, -181351.68330093424, 0.06, 0.01, 0.982, 192.0, 1.0, 224.0, 0.0, 80.0, 30.0, 176.0, 0.0, 0.0, 0.0, 1.708991752530299E9, 0.0, 2024-02-26 18:55:52.530
28.0, 187500.0, 187500.0, 187500.0, 187500.0, 187500.0, 187500.0, 9252.59402425218, -181332.57255942497, 0.06, 0.01, 0.982, 192.0, 0.0, 0.0, 0.0, 0.0, 0.0, 0.0, 0.0, 0.0, 0.0, 1.708991752534285E9, 0.0, 2024-02-26 18:55:52.534
29.0, 187500.0, 187500.0, 187500.0, 187500.0, 187500.0, 187500.0, 9878.889903889883, -181455.0824707845, 0.06, 0.01, 0.982, 192.0, 0.0, 0.0, 0.0, 0.0, 0.0, 0.0, 0.0, 0.0, 0.0, 1.708991752538282E9, 0.0, 2024-02-26 18:55:52.538
30.0, 187500.0, 187500.0, 187500.0, 187500.0, 187500.0, 187500.0, 9701.551163381477, -181483.580944965, 0.06, 0.01, 0.982, 192.0, 0.0, 0.0, 0.0, 0.0, 0.0, 0.0, 0.0, 0.0, 0.0, 1.708991752543288E9, 0.0, 2024-02-26 18:55:52.543
31.0, 187500.0, 187500.0, 187500.0, 187500.0, 187500.0, 187500.0, 8875.296577846597, -181349.17990555524, 0.06, 0.01, 0.982, 192.0, 0.0, 0.0, 0.0, 0.0, 0.0, 0.0, 0.0, 0.0, 0.0, 1.708991752547292E9, 0.0, 2024-02-26 18:55:52.547
32.0, 187500.0, 187500.0, 187500.0, 187500.0, 187500.0, 187500.0, 8612.976504919114, -181332.23728325812, 0.06, 0.01, 0.982, 192.0, 0.0, 0.0, 0.0, 0.0, 0.0, 0.0, 0.0, 0.0, 0.0, 1.708991752550328E9, 0.0, 2024-02-26 18:55:52.550
33.0, 187500.0, 187500.0, 187500.0, 187500.0, 187500.0, 187500.0, 9030.015352966233, -181477.70243617328, 0.06, 0.01, 0.982, 192.0, 0.0, 0.0, 0.0, 0.0, 0.0, 0.0, 0.0, 0.0, 0.0, 1.708991752554328E9, 0.0, 2024-02-26 18:55:52.554
34.0, 187500.0, 187500.0, 187500.0, 187500.0, 187500.0, 187500.0, 9011.351646346051, -181530.4972565767, 0.06, 0.01, 0.982, 192.0, 0.0, 0.0, 0.0, 0.0, 0.0, 0.0, 0.0, 0.0, 0.0, 1.708991752558329E9, 0.0, 2024-02-26 18:55:52.558
35.0, 187500.0, 187500.0, 187500.0, 187500.0, 187500.0, 187500.0, 8261.49532335941, -181382.81928096048, 0.06, 0.01, 0.982, 192.0, 0.0, 0.0, 0.0, 0.0, 0.0, 0.0, 0.0, 0.0, 0.0, 1.708991752562326E9, 0.0, 2024-02-26 18:55:52.562
36.0, 187500.0, 187500.0, 187500.0, 187500.0, 187500.0, 187500.0, 8019.671800097442, -181327.07403028896, 0.06, 0.01, 0.982, 192.0, 0.0, 0.0, 0.0, 0.0, 0.0, 0.0, 0.0, 0.0, 0.0, 1.708991752566326E9, 0.0, 2024-02-26 18:55:52.566
37.0, 187500.0, 187500.0, 187500.0, 187500.0, 187500.0, 187500.0, 8379.512534083431, -181412.83767376398, 0.062, 0.012, 0.982, 192.0, 1.0, 240.0, 0.0, 96.0, 30.0, 176.0, 0.0, 0.0, 0.0, 1.708991752571341E9, 0.0, 2024-02-26 18:55:52.571
38.0, 187500.0, 187500.0, 187500.0, 187500.0, 187500.0, 187500.0, 8632.131949917311, -181506.33502082052, 0.062, 0.012, 0.982, 192.0, 0.0, 0.0, 0.0, 0.0, 0.0, 0.0, 0.0, 0.0, 0.0, 1.70899175257534E9, 0.0, 2024-02-26 18:55:52.575
39.0, 187500.0, 187500.0, 187500.0, 187500.0, 187500.0, 187500.0, 7910.528231922178, -181395.09038866646, 0.062, 0.012, 0.982, 192.0, 0.0, 0.0, 0.0, 0.0, 0.0, 0.0, 0.0, 0.0, 0.0, 1.708991752578334E9, 0.0, 2024-02-26 18:55:52.578
40.0, 187500.0, 187500.0, 187500.0, 187500.0, 187500.0, 187500.0, 7613.585306833424, -181341.46855371818, 0.062, 0.012, 0.982, 192.0, 0.0, 0.0, 0.0, 0.0, 0.0, 0.0, 0.0, 0.0, 0.0, 1.708991752582336E9, 0.0, 2024-02-26 18:55:52.582
41.0, 187500.0, 187500.0, 187500.0, 187500.0, 187500.0, 187500.0, 7880.733356563253, -181384.31684783899, 0.062, 0.012, 0.982, 192.0, 0.0, 0.0, 0.0, 0.0, 0.0, 0.0, 0.0, 0.0, 0.0, 1.708991752586341E9, 0.0, 2024-02-26 18:55:52.586
42.0, 187500.0, 187500.0, 187500.0, 187500.0, 187500.0, 187500.0, 8296.721672620974, -181498.33309630552, 0.062, 0.012, 0.982, 192.0, 0.0, 0.0, 0.0, 0.0, 0.0, 0.0, 0.0, 0.0, 0.0, 1.708991752590334E9, 0.0, 2024-02-26 18:55:52.590
43.0, 187500.0, 187500.0, 187500.0, 187500.0, 187500.0, 187500.0, 7709.206069613228, -181415.6316418209, 0.062, 0.012, 0.982, 192.0, 0.0, 0.0, 0.0, 0.0, 0.0, 0.0, 0.0, 0.0, 0.0, 1.708991752595332E9, 0.0, 2024-02-26 18:55:52.595
44.0, 187500.0, 187500.0, 187500.0, 187500.0, 187500.0, 187500.0, 7392.638312892714, -181360.98162662765, 0.062, 0.012, 0.982, 192.0, 0.0, 0.0, 0.0, 0.0, 0.0, 0.0, 0.0, 0.0, 0.0, 1.708991752599334E9, 0.0, 2024-02-26 18:55:52.599
45.0, 187500.0, 187500.0, 187500.0, 187500.0, 187500.0, 187500.0, 7688.798926925532, -181385.6132490174, 0.062, 0.012, 0.982, 192.0, 0.0, 0.0, 0.0, 0.0, 0.0, 0.0, 0.0, 0.0, 0.0, 1.708991752603334E9, 0.0, 2024-02-26 18:55:52.603
46.0, 187500.0, 187500.0, 187500.0, 187500.0, 187500.0, 187500.0, 8184.851191622161, -181505.39624755338, 0.062, 0.012, 0.982, 192.0, 0.0, 0.0, 0.0, 0.0, 0.0, 0.0, 0.0, 0.0, 0.0, 1.708991752606379E9, 0.0, 2024-02-26 18:55:52.606
47.0, 187500.0, 187500.0, 187500.0, 187500.0, 187500.0, 187500.0, 7588.663111765756, -181424.34882215844, 0.056, 0.01, 0.98, 192.0, 1.0, 192.0, 0.0, 80.0, 30.0, 160.0, 0.0, 0.0, 0.0, 1.708991752610373E9, 0.0, 2024-02-26 18:55:52.610
48.0, 187500.0, 187500.0, 187500.0, 187500.0, 187500.0, 187500.0, 6975.353595656586, -181328.5045419341, 0.056, 0.01, 0.98, 192.0, 0.0, 0.0, 0.0, 0.0, 0.0, 0.0, 0.0, 0.0, 0.0, 1.708991752614369E9, 0.0, 2024-02-26 18:55:52.614
49.0, 187500.0, 187500.0, 187500.0, 187500.0, 187500.0, 187500.0, 6997.235953478331, -181346.98943459862, 0.056, 0.01, 0.98, 192.0, 0.0, 0.0, 0.0, 0.0, 0.0, 0.0, 0.0, 0.0, 0.0, 1.708991752620385E9, 0.0, 2024-02-26 18:55:52.620
50.0, 187500.0, 187500.0, 187500.0, 187500.0, 187500.0, 187500.0, 7588.841925721398, -181480.67521818582, 0.056, 0.01, 0.98, 192.0, 0.0, 0.0, 0.0, 0.0, 0.0, 0.0, 0.0, 0.0, 0.0, 1.708991752623375E9, 0.0, 2024-02-26 18:55:52.623
51.0, 187500.0, 187500.0, 187500.0, 187500.0, 187500.0, 187500.0, 7398.583876917824, -181459.083433042, 0.056, 0.01, 0.98, 192.0, 0.0, 0.0, 0.0, 0.0, 0.0, 0.0, 0.0, 0.0, 0.0, 1.70899175262738E9, 0.0, 2024-02-26 18:55:52.627
52.0, 187500.0, 187500.0, 187500.0, 187500.0, 187500.0, 187500.0, 6922.424664786418, -181350.3645480114, 0.056, 0.01, 0.98, 192.0, 0.0, 0.0, 0.0, 0.0, 0.0, 0.0, 0.0, 0.0, 0.0, 1.708991752631388E9, 0.0, 2024-02-26 18:55:52.631
53.0, 187500.0, 187500.0, 187500.0, 187500.0, 187500.0, 187500.0, 7009.618819906571, -181351.88446663434, 0.056, 0.01, 0.98, 192.0, 0.0, 0.0, 0.0, 0.0, 0.0, 0.0, 0.0, 0.0, 0.0, 1.708991752634371E9, 0.0, 2024-02-26 18:55:52.634
54.0, 187500.0, 187500.0, 187500.0, 187500.0, 187500.0, 187500.0, 7677.734813420155, -181448.10872651445, 0.056, 0.01, 0.98, 192.0, 0.0, 0.0, 0.0, 0.0, 0.0, 0.0, 0.0, 0.0, 0.0, 1.708991752638367E9, 0.0, 2024-02-26 18:55:52.638
55.0, 187500.0, 187500.0, 187500.0, 187500.0, 187500.0, 187500.0, 7787.213657762249, -181469.7899186361, 0.056, 0.01, 0.98, 192.0, 0.0, 0.0, 0.0, 0.0, 0.0, 0.0, 0.0, 0.0, 0.0, 1.70899175264241E9, 0.0, 2024-02-26 18:55:52.642
56.0, 187500.0, 187500.0, 187500.0, 187500.0, 187500.0, 187500.0, 7315.994181155465, -181375.19733610124, 0.056, 0.01, 0.98, 192.0, 0.0, 0.0, 0.0, 0.0, 0.0, 0.0, 0.0, 0.0, 0.0, 1.708991752646413E9, 0.0, 2024-02-26 18:55:52.646
57.0, 187500.0, 187500.0, 187500.0, 187500.0, 187500.0, 187500.0, 7510.275543960995, -181353.24792304612, 0.06, 0.006, 0.982, 192.0, 1.0, 224.0, 0.0, 48.0, 30.0, 176.0, 0.0, 0.0, 0.0, 1.708991752652422E9, 0.0, 2024-02-26 18:55:52.652
58.0, 187500.0, 187500.0, 187500.0, 187500.0, 187500.0, 187500.0, 8265.630396083641, -181400.29834512452, 0.06, 0.006, 0.982, 192.0, 0.0, 0.0, 0.0, 0.0, 0.0, 0.0, 0.0, 0.0, 0.0, 1.708991752655421E9, 0.0, 2024-02-26 18:55:52.655
59.0, 187500.0, 187500.0, 187500.0, 187500.0, 187500.0, 187500.0, 8604.996932148568, -181453.16022076135, 0.06, 0.006, 0.982, 192.0, 0.0, 0.0, 0.0, 0.0, 0.0, 0.0, 0.0, 0.0, 0.0, 1.708991752659421E9, 0.0, 2024-02-26 18:55:52.659
60.0, 187500.0, 187500.0, 187500.0, 187500.0, 187500.0, 187500.0, 8064.576454708154, -181379.46651929218, 0.06, 0.006, 0.982, 192.0, 0.0, 0.0, 0.0, 0.0, 0.0, 0.0, 0.0, 0.0, 0.0, 1.70899175266242E9, 0.0, 2024-02-26 18:55:52.662
61.0, 187500.0, 187500.0, 187500.0, 187500.0, 187500.0, 187500.0, 8057.6474139270085, -181337.51229494959, 0.06, 0.006, 0.982, 192.0, 0.0, 0.0, 0.0, 0.0, 0.0, 0.0, 0.0, 0.0, 0.0, 1.708991752666436E9, 0.0, 2024-02-26 18:55:52.666
62.0, 187500.0, 187500.0, 187500.0, 187500.0, 187500.0, 187500.0, 8697.644912915815, -181387.33433334046, 0.06, 0.006, 0.982, 192.0, 0.0, 0.0, 0.0, 0.0, 0.0, 0.0, 0.0, 0.0, 0.0, 1.708991752670435E9, 0.0, 2024-02-26 18:55:52.670
63.0, 187500.0, 187500.0, 187500.0, 187500.0, 187500.0, 187500.0, 9298.571562596746, -181485.592601966, 0.06, 0.006, 0.982, 192.0, 0.0, 0.0, 0.0, 0.0, 0.0, 0.0, 0.0, 0.0, 0.0, 1.708991752676448E9, 0.0, 2024-02-26 18:55:52.676
64.0, 187500.0, 187500.0, 187500.0, 187500.0, 187500.0, 187500.0, 8812.421120693818, -181393.0116764321, 0.06, 0.006, 0.982, 192.0, 0.0, 0.0, 0.0, 0.0, 0.0, 0.0, 0.0, 0.0, 0.0, 1.708991752679444E9, 0.0, 2024-02-26 18:55:52.679
65.0, 187500.0, 187500.0, 187500.0, 187500.0, 187500.0, 187500.0, 8618.899717199769, -181324.5482831655, 0.06, 0.006, 0.982, 192.0, 0.0, 0.0, 0.0, 0.0, 0.0, 0.0, 0.0, 0.0, 0.0, 1.708991752683483E9, 0.0, 2024-02-26 18:55:52.683
66.0, 187500.0, 187500.0, 187500.0, 187500.0, 187500.0, 187500.0, 8997.493564783761, -181352.53266722354, 0.06, 0.006, 0.982, 192.0, 0.0, 0.0, 0.0, 0.0, 0.0, 0.0, 0.0, 0.0, 0.0, 1.708991752687487E9, 0.0, 2024-02-26 18:55:52.687
67.0, 187500.0, 187500.0, 187500.0, 187500.0, 187500.0, 187500.0, 9589.188944004649, -181480.585811208, 0.058, 0.006, 0.984, 192.0, 1.0, 208.0, 0.0, 48.0, 30.0, 192.0, 0.0, 0.0, 0.0, 1.708991752690471E9, 0.0, 2024-02-26 18:55:52.690
68.0, 187500.0, 187500.0, 187500.0, 187500.0, 187500.0, 187500.0, 9109.47580450485, -181394.7104090107, 0.058, 0.006, 0.984, 192.0, 0.0, 0.0, 0.0, 0.0, 0.0, 0.0, 0.0, 0.0, 0.0, 1.708991752694469E9, 0.0, 2024-02-26 18:55:52.694
69.0, 187500.0, 187500.0, 187500.0, 187500.0, 187500.0, 187500.0, 8843.378286764419, -181324.45887618768, 0.058, 0.006, 0.984, 192.0, 0.0, 0.0, 0.0, 0.0, 0.0, 0.0, 0.0, 0.0, 0.0, 1.708991752698469E9, 0.0, 2024-02-26 18:55:52.698
70.0, 187500.0, 187500.0, 187500.0, 187500.0, 187500.0, 187500.0, 9152.212339903395, -181328.32572797846, 0.058, 0.006, 0.984, 192.0, 0.0, 0.0, 0.0, 0.0, 0.0, 0.0, 0.0, 0.0, 0.0, 1.708991752702477E9, 0.0, 2024-02-26 18:55:52.702
71.0, 187500.0, 187500.0, 187500.0, 187500.0, 187500.0, 187500.0, 9796.166097660793, -181462.1679737768, 0.058, 0.006, 0.984, 192.0, 0.0, 0.0, 0.0, 0.0, 0.0, 0.0, 0.0, 0.0, 0.0, 1.708991752706495E9, 0.0, 2024-02-26 18:55:52.706
72.0, 187500.0, 187500.0, 187500.0, 187500.0, 187500.0, 187500.0, 9385.922179928086, -181430.2720344391, 0.058, 0.006, 0.984, 192.0, 0.0, 0.0, 0.0, 0.0, 0.0, 0.0, 0.0, 0.0, 0.0, 1.708991752711491E9, 0.0, 2024-02-26 18:55:52.711
73.0, 187500.0, 187500.0, 187500.0, 187500.0, 187500.0, 187500.0, 8783.252094179643, -181345.42481248674, 0.058, 0.006, 0.984, 192.0, 0.0, 0.0, 0.0, 0.0, 0.0, 0.0, 0.0, 0.0, 0.0, 1.708991752714479E9, 0.0, 2024-02-26 18:55:52.714
74.0, 187500.0, 187500.0, 187500.0, 187500.0, 187500.0, 187500.0, 8828.447321468273, -181336.3947077268, 0.058, 0.006, 0.984, 192.0, 0.0, 0.0, 0.0, 0.0, 0.0, 0.0, 0.0, 0.0, 0.0, 1.708991752718483E9, 0.0, 2024-02-26 18:55:52.718
75.0, 187500.0, 187500.0, 187500.0, 187500.0, 187500.0, 187500.0, 9391.62187476419, -181458.85991559745, 0.058, 0.006, 0.984, 192.0, 0.0, 0.0, 0.0, 0.0, 0.0, 0.0, 0.0, 0.0, 0.0, 1.708991752722525E9, 0.0, 2024-02-26 18:55:52.722
76.0, 187500.0, 187500.0, 187500.0, 187500.0, 187500.0, 187500.0, 9125.636115746036, -181450.29919747106, 0.058, 0.006, 0.984, 192.0, 0.0, 0.0, 0.0, 0.0, 0.0, 0.0, 0.0, 0.0, 0.0, 1.708991752726537E9, 0.0, 2024-02-26 18:55:52.726
77.0, 187500.0, 187500.0, 187500.0, 187500.0, 187500.0, 187500.0, 8426.697066628583, -181334.047774559, 0.056, 0.014, 0.978, 192.0, 1.0, 192.0, 0.0, 112.0, 30.0, 144.0, 0.0, 0.0, 0.0, 1.708991752730515E9, 0.0, 2024-02-26 18:55:52.730
78.0, 187500.0, 187500.0, 187500.0, 187500.0, 187500.0, 187500.0, 8316.301800763822, -181319.20621624068, 0.056, 0.014, 0.978, 192.0, 0.0, 0.0, 0.0, 0.0, 0.0, 0.0, 0.0, 0.0, 0.0, 1.708991752738268E9, 0.0, 2024-02-26 18:55:52.738
79.0, 187500.0, 187500.0, 187500.0, 187500.0, 187500.0, 187500.0, 8780.189905189265, -181437.84927580945, 0.056, 0.014, 0.978, 192.0, 0.0, 0.0, 0.0, 0.0, 0.0, 0.0, 0.0, 0.0, 0.0, 1.708991752738525E9, 0.0, 2024-02-26 18:55:52.738
80.0, 187500.0, 187500.0, 187500.0, 187500.0, 187500.0, 187500.0, 8732.759503455103, -181481.21166005274, 0.056, 0.014, 0.978, 192.0, 0.0, 0.0, 0.0, 0.0, 0.0, 0.0, 0.0, 0.0, 0.0, 1.70899175274253E9, 0.0, 2024-02-26 18:55:52.742
81.0, 187500.0, 187500.0, 187500.0, 187500.0, 187500.0, 187500.0, 8022.912803043462, -181350.99039685613, 0.056, 0.014, 0.978, 192.0, 0.0, 0.0, 0.0, 0.0, 0.0, 0.0, 0.0, 0.0, 0.0, 1.70899175274552E9, 0.0, 2024-02-26 18:55:52.745
82.0, 187500.0, 187500.0, 187500.0, 187500.0, 187500.0, 187500.0, 7851.4972748157115, -181323.85537908738, 0.056, 0.014, 0.978, 192.0, 0.0, 0.0, 0.0, 0.0, 0.0, 0.0, 0.0, 0.0, 0.0, 1.708991752750527E9, 0.0, 2024-02-26 18:55:52.750
83.0, 187500.0, 187500.0, 187500.0, 187500.0, 187500.0, 187500.0, 8214.333142558711, -181427.6792320823, 0.056, 0.014, 0.978, 192.0, 0.0, 0.0, 0.0, 0.0, 0.0, 0.0, 0.0, 0.0, 0.0, 1.708991752754526E9, 0.0, 2024-02-26 18:55:52.754
84.0, 187500.0, 187500.0, 187500.0, 187500.0, 187500.0, 187500.0, 8260.690660559017, -181511.92295693434, 0.056, 0.014, 0.978, 192.0, 0.0, 0.0, 0.0, 0.0, 0.0, 0.0, 0.0, 0.0, 0.0, 1.70899175275851E9, 0.0, 2024-02-26 18:55:52.758
85.0, 187500.0, 187500.0, 187500.0, 187500.0, 187500.0, 187500.0, 7405.110586298774, -181384.38390307236, 0.056, 0.014, 0.978, 192.0, 0.0, 0.0, 0.0, 0.0, 0.0, 0.0, 0.0, 0.0, 0.0, 1.708991752762524E9, 0.0, 2024-02-26 18:55:52.762
86.0, 187500.0, 187500.0, 187500.0, 187500.0, 187500.0, 187500.0, 7107.899440276557, -181336.5958734269, 0.056, 0.014, 0.978, 192.0, 0.0, 0.0, 0.0, 0.0, 0.0, 0.0, 0.0, 0.0, 0.0, 1.708991752767558E9, 0.0, 2024-02-26 18:55:52.767
87.0, 187500.0, 187500.0, 187500.0, 187500.0, 187500.0, 187500.0, 7449.791723464933, -181403.807569004, 0.06, 0.01, 0.99, 192.0, 1.0, 224.0, 0.0, 80.0, 30.0, 240.0, 0.0, 0.0, 0.0, 1.708991752770554E9, 0.0, 2024-02-26 18:55:52.770
88.0, 187500.0, 187500.0, 187500.0, 187500.0, 187500.0, 187500.0, 7883.817897298086, -181507.49731153218, 0.06, 0.01, 0.99, 192.0, 0.0, 0.0, 0.0, 0.0, 0.0, 0.0, 0.0, 0.0, 0.0, 1.708991752773547E9, 0.0, 2024-02-26 18:55:52.773
89.0, 187500.0, 187500.0, 187500.0, 187500.0, 187500.0, 187500.0, 7285.171125551597, -181403.807569004, 0.06, 0.01, 0.99, 192.0, 0.0, 0.0, 0.0, 0.0, 0.0, 0.0, 0.0, 0.0, 0.0, 1.70899175277855E9, 0.0, 2024-02-26 18:55:52.778
90.0, 187500.0, 187500.0, 187500.0, 187500.0, 187500.0, 187500.0, 6937.333278338108, -181325.7552773661, 0.06, 0.01, 0.99, 192.0, 0.0, 0.0, 0.0, 0.0, 0.0, 0.0, 0.0, 0.0, 0.0, 1.708991752782549E9, 0.0, 2024-02-26 18:55:52.782
91.0, 187500.0, 187500.0, 187500.0, 187500.0, 187500.0, 187500.0, 7143.014030815844, -181367.73185345315, 0.06, 0.01, 0.99, 192.0, 0.0, 0.0, 0.0, 0.0, 0.0, 0.0, 0.0, 0.0, 0.0, 1.70899175278655E9, 0.0, 2024-02-26 18:55:52.786
92.0, 187500.0, 187500.0, 187500.0, 187500.0, 187500.0, 187500.0, 7691.0117496266075, -181518.2932041041, 0.06, 0.01, 0.99, 192.0, 0.0, 0.0, 0.0, 0.0, 0.0, 0.0, 0.0, 0.0, 0.0, 1.708991752790549E9, 0.0, 2024-02-26 18:55:52.790
93.0, 187500.0, 187500.0, 187500.0, 187500.0, 187500.0, 187500.0, 7278.934988848566, -181447.75109860316, 0.06, 0.01, 0.99, 192.0, 0.0, 0.0, 0.0, 0.0, 0.0, 0.0, 0.0, 0.0, 0.0, 1.708991752794551E9, 0.0, 2024-02-26 18:55:52.794
94.0, 187500.0, 187500.0, 187500.0, 187500.0, 187500.0, 187500.0, 6929.957202667857, -181335.4559344597, 0.06, 0.01, 0.99, 192.0, 0.0, 0.0, 0.0, 0.0, 0.0, 0.0, 0.0, 0.0, 0.0, 1.708991752798547E9, 0.0, 2024-02-26 18:55:52.798
95.0, 187500.0, 187500.0, 187500.0, 187500.0, 187500.0, 187500.0, 6966.994043230301, -181351.79505965652, 0.06, 0.01, 0.99, 192.0, 0.0, 0.0, 0.0, 0.0, 0.0, 0.0, 0.0, 0.0, 0.0, 1.708991752801593E9, 0.0, 2024-02-26 18:55:52.801
96.0, 187500.0, 187500.0, 187500.0, 187500.0, 187500.0, 187500.0, 7304.237163571974, -181501.93172716282, 0.06, 0.01, 0.99, 192.0, 0.0, 0.0, 0.0, 0.0, 0.0, 0.0, 0.0, 0.0, 0.0, 1.708991752806633E9, 0.0, 2024-02-26 18:55:52.806
97.0, 187500.0, 187500.0, 187500.0, 187500.0, 187500.0, 187500.0, 6758.720488395749, -181472.9862180932, 0.056, 0.01, 0.986, 192.0, 1.0, 192.0, 0.0, 80.0, 30.0, 208.0, 0.0, 0.0, 0.0, 1.708991752810604E9, 0.0, 2024-02-26 18:55:52.810
98.0, 187500.0, 187500.0, 187500.0, 187500.0, 187500.0, 187500.0, 6258.354337019246, -181339.9486350952, 0.056, 0.01, 0.986, 192.0, 0.0, 0.0, 0.0, 0.0, 0.0, 0.0, 0.0, 0.0, 0.0, 1.708991752814598E9, 0.0, 2024-02-26 18:55:52.814
99.0, 187500.0, 187500.0, 187500.0, 187500.0, 187500.0, 187500.0, 6567.210741902679, -181340.1945042842, 0.056, 0.01, 0.986, 192.0, 0.0, 0.0, 0.0, 0.0, 0.0, 0.0, 0.0, 0.0, 0.0, 1.70899175281861E9, 0.0, 2024-02-26 18:55:52.818
100.0, 187500.0, 187500.0, 187500.0, 187500.0, 187500.0, 187500.0, 7418.566336460869, -181464.2690377556, 0.056, 0.01, 0.986, 192.0, 0.0, 0.0, 0.0, 0.0, 0.0, 0.0, 0.0, 0.0, 0.0, 1.708991752821613E9, 0.0, 2024-02-26 18:55:52.821
101.0, 187500.0, 187500.0, 187500.0, 187500.0, 187500.0, 187500.0, 7413.045455580409, -181462.9279330883, 0.056, 0.01, 0.986, 192.0, 0.0, 0.0, 0.0, 0.0, 0.0, 0.0, 0.0, 0.0, 0.0, 1.708991752825599E9, 0.0, 2024-02-26 18:55:52.825
102.0, 187500.0, 187500.0, 187500.0, 187500.0, 187500.0, 187500.0, 6816.25387862371, -181361.22749581665, 0.056, 0.01, 0.986, 192.0, 0.0, 0.0, 0.0, 0.0, 0.0, 0.0, 0.0, 0.0, 0.0, 1.708991752829599E9, 0.0, 2024-02-26 18:55:52.829
103.0, 187500.0, 187500.0, 187500.0, 187500.0, 187500.0, 187500.0, 6818.667867024883, -181330.82912335746, 0.056, 0.01, 0.986, 192.0, 0.0, 0.0, 0.0, 0.0, 0.0, 0.0, 0.0, 0.0, 0.0, 1.708991752834633E9, 0.0, 2024-02-26 18:55:52.834
104.0, 187500.0, 187500.0, 187500.0, 187500.0, 187500.0, 187500.0, 7484.325168648383, -181418.7161825557, 0.056, 0.01, 0.986, 192.0, 0.0, 0.0, 0.0, 0.0, 0.0, 0.0, 0.0, 0.0, 0.0, 1.708991752838595E9, 0.0, 2024-02-26 18:55:52.838
105.0, 187500.0, 187500.0, 187500.0, 187500.0, 187500.0, 187500.0, 7810.884155140419, -181454.54602891757, 0.056, 0.01, 0.986, 192.0, 0.0, 0.0, 0.0, 0.0, 0.0, 0.0, 0.0, 0.0, 0.0, 1.708991752842595E9, 0.0, 2024-02-26 18:55:52.842
106.0, 187500.0, 187500.0, 187500.0, 187500.0, 187500.0, 187500.0, 7399.187374018118, -181377.6113245024, 0.056, 0.008, 0.978, 192.0, 1.0, 192.0, 0.0, 64.0, 30.0, 144.0, 0.0, 0.0, 0.0, 1.708991752846697E9, 0.0, 2024-02-26 18:55:52.846
107.0, 187500.0, 187500.0, 187500.0, 187500.0, 187500.0, 187500.0, 7470.400031852727, -181340.84270487342, 0.056, 0.008, 0.978, 192.0, 0.0, 0.0, 0.0, 0.0, 0.0, 0.0, 0.0, 0.0, 0.0, 1.708991752849733E9, 0.0, 2024-02-26 18:55:52.849
108.0, 187500.0, 187500.0, 187500.0, 187500.0, 187500.0, 187500.0, 8094.08075738916, -181396.29738286705, 0.056, 0.008, 0.978, 192.0, 0.0, 0.0, 0.0, 0.0, 0.0, 0.0, 0.0, 0.0, 0.0, 1.708991752853723E9, 0.0, 2024-02-26 18:55:52.853
109.0, 187500.0, 187500.0, 187500.0, 187500.0, 187500.0, 187500.0, 8552.693850123149, -181486.15139557738, 0.056, 0.008, 0.978, 192.0, 0.0, 0.0, 0.0, 0.0, 0.0, 0.0, 0.0, 0.0, 0.0, 1.708991752857716E9, 0.0, 2024-02-26 18:55:52.857
110.0, 187500.0, 187500.0, 187500.0, 187500.0, 187500.0, 187500.0, 8088.64928348652, -181384.562717028, 0.056, 0.008, 0.978, 192.0, 0.0, 0.0, 0.0, 0.0, 0.0, 0.0, 0.0, 0.0, 0.0, 1.708991752861702E9, 0.0, 2024-02-26 18:55:52.861
111.0, 187500.0, 187500.0, 187500.0, 187500.0, 187500.0, 187500.0, 8088.559876508699, -181342.6531961743, 0.056, 0.008, 0.978, 192.0, 0.0, 0.0, 0.0, 0.0, 0.0, 0.0, 0.0, 0.0, 0.0, 1.708991752866719E9, 0.0, 2024-02-26 18:55:52.866
112.0, 187500.0, 187500.0, 187500.0, 187500.0, 187500.0, 187500.0, 8640.402095365775, -181372.60453374442, 0.056, 0.008, 0.978, 192.0, 0.0, 0.0, 0.0, 0.0, 0.0, 0.0, 0.0, 0.0, 0.0, 1.708991752870701E9, 0.0, 2024-02-26 18:55:52.870
113.0, 187500.0, 187500.0, 187500.0, 187500.0, 187500.0, 187500.0, 9295.308207906271, -181461.76564237665, 0.056, 0.008, 0.978, 192.0, 0.0, 0.0, 0.0, 0.0, 0.0, 0.0, 0.0, 0.0, 0.0, 1.708991752874698E9, 0.0, 2024-02-26 18:55:52.874
114.0, 187500.0, 187500.0, 187500.0, 187500.0, 187500.0, 187500.0, 8994.386672304472, -181377.2089931022, 0.056, 0.008, 0.978, 192.0, 0.0, 0.0, 0.0, 0.0, 0.0, 0.0, 0.0, 0.0, 0.0, 1.708991752877698E9, 0.0, 2024-02-26 18:55:52.877
115.0, 187500.0, 187500.0, 187500.0, 187500.0, 187500.0, 187500.0, 8953.930014840367, -181341.1556292958, 0.056, 0.008, 0.978, 192.0, 0.0, 0.0, 0.0, 0.0, 0.0, 0.0, 0.0, 0.0, 0.0, 1.708991752881699E9, 0.0, 2024-02-26 18:55:52.881
116.0, 187500.0, 187500.0, 187500.0, 187500.0, 187500.0, 187500.0, 9394.974636432486, -181362.54624873953, 0.056, 0.012, 0.982, 192.0, 1.0, 192.0, 0.0, 96.0, 30.0, 176.0, 0.0, 0.0, 0.0, 1.708991752885701E9, 0.0, 2024-02-26 18:55:52.885
117.0, 187500.0, 187500.0, 187500.0, 187500.0, 187500.0, 187500.0, 10016.17431833438, -181460.51394468715, 0.056, 0.012, 0.982, 192.0, 0.0, 0.0, 0.0, 0.0, 0.0, 0.0, 0.0, 0.0, 0.0, 1.708991752889697E9, 0.0, 2024-02-26 18:55:52.889
118.0, 187500.0, 187500.0, 187500.0, 187500.0, 187500.0, 187500.0, 9655.752438992553, -181378.63950474735, 0.056, 0.012, 0.982, 192.0, 0.0, 0.0, 0.0, 0.0, 0.0, 0.0, 0.0, 0.0, 0.0, 1.708991752894704E9, 0.0, 2024-02-26 18:55:52.894
119.0, 187500.0, 187500.0, 187500.0, 187500.0, 187500.0, 187500.0, 9406.597543549246, -181335.38887922632, 0.056, 0.012, 0.982, 192.0, 0.0, 0.0, 0.0, 0.0, 0.0, 0.0, 0.0, 0.0, 0.0, 1.708991752898698E9, 0.0, 2024-02-26 18:55:52.898
120.0, 187500.0, 187500.0, 187500.0, 187500.0, 187500.0, 187500.0, 9687.313102163447, -181330.51619893507, 0.056, 0.012, 0.982, 192.0, 0.0, 0.0, 0.0, 0.0, 0.0, 0.0, 0.0, 0.0, 0.0, 1.708991752902712E9, 0.0, 2024-02-26 18:55:52.902
121.0, 187500.0, 187500.0, 187500.0, 187500.0, 187500.0, 187500.0, 10336.318354167743, -181449.38277594838, 0.056, 0.012, 0.982, 192.0, 0.0, 0.0, 0.0, 0.0, 0.0, 0.0, 0.0, 0.0, 0.0, 1.708991752905758E9, 0.0, 2024-02-26 18:55:52.905
122.0, 187500.0, 187500.0, 187500.0, 187500.0, 187500.0, 187500.0, 10014.341475289044, -181415.74340054314, 0.056, 0.012, 0.982, 192.0, 0.0, 0.0, 0.0, 0.0, 0.0, 0.0, 0.0, 0.0, 0.0, 1.708991752910707E9, 0.0, 2024-02-26 18:55:52.910
123.0, 187500.0, 187500.0, 187500.0, 187500.0, 187500.0, 187500.0, 9463.482733188002, -181338.71928915018, 0.056, 0.012, 0.982, 192.0, 0.0, 0.0, 0.0, 0.0, 0.0, 0.0, 0.0, 0.0, 0.0, 1.708991752914698E9, 0.0, 2024-02-26 18:55:52.914
124.0, 187500.0, 187500.0, 187500.0, 187500.0, 187500.0, 187500.0, 9614.602877450334, -181330.6950128907, 0.056, 0.012, 0.982, 192.0, 0.0, 0.0, 0.0, 0.0, 0.0, 0.0, 0.0, 0.0, 0.0, 1.7089917529177E9, 0.0, 2024-02-26 18:55:52.917
125.0, 187500.0, 187500.0, 187500.0, 187500.0, 187500.0, 187500.0, 10396.1539740746, -181437.04461300906, 0.056, 0.012, 0.982, 192.0, 0.0, 0.0, 0.0, 0.0, 0.0, 0.0, 0.0, 0.0, 0.0, 1.708991752924713E9, 0.0, 2024-02-26 18:55:52.924
126.0, 187500.0, 187500.0, 187500.0, 187500.0, 187500.0, 187500.0, 10513.120652809223, -181432.88718854036, 0.054, 0.008, 0.978, 192.0, 1.0, 176.0, 0.0, 64.0, 30.0, 144.0, 0.0, 0.0, 0.0, 1.708991752928704E9, 0.0, 2024-02-26 18:55:52.928
127.0, 187500.0, 187500.0, 187500.0, 187500.0, 187500.0, 187500.0, 10047.310298360622, -181326.9399198222, 0.054, 0.008, 0.978, 192.0, 0.0, 0.0, 0.0, 0.0, 0.0, 0.0, 0.0, 0.0, 0.0, 1.708991752931702E9, 0.0, 2024-02-26 18:55:52.931
128.0, 187500.0, 187500.0, 187500.0, 187500.0, 187500.0, 187500.0, 10074.825295785105, -181307.31508819046, 0.054, 0.008, 0.978, 192.0, 0.0, 0.0, 0.0, 0.0, 0.0, 0.0, 0.0, 0.0, 0.0, 1.708991752934719E9, 0.0, 2024-02-26 18:55:52.934
129.0, 187500.0, 187500.0, 187500.0, 187500.0, 187500.0, 187500.0, 10649.667459686692, -181400.7230282692, 0.054, 0.008, 0.978, 192.0, 0.0, 0.0, 0.0, 0.0, 0.0, 0.0, 0.0, 0.0, 0.0, 1.708991752938729E9, 0.0, 2024-02-26 18:55:52.938
130.0, 187500.0, 187500.0, 187500.0, 187500.0, 187500.0, 187500.0, 10845.021706226076, -181452.10968877195, 0.054, 0.008, 0.978, 192.0, 0.0, 0.0, 0.0, 0.0, 0.0, 0.0, 0.0, 0.0, 0.0, 1.708991752941714E9, 0.0, 2024-02-26 18:55:52.941
131.0, 187500.0, 187500.0, 187500.0, 187500.0, 187500.0, 187500.0, 10289.558504767241, -181351.0127486006, 0.054, 0.008, 0.978, 192.0, 0.0, 0.0, 0.0, 0.0, 0.0, 0.0, 0.0, 0.0, 0.0, 1.708991752945794E9, 0.0, 2024-02-26 18:55:52.945
132.0, 187500.0, 187500.0, 187500.0, 187500.0, 187500.0, 187500.0, 10282.60711224164, -181320.05558252998, 0.054, 0.008, 0.978, 192.0, 0.0, 0.0, 0.0, 0.0, 0.0, 0.0, 0.0, 0.0, 0.0, 1.708991752950828E9, 0.0, 2024-02-26 18:55:52.950
133.0, 187500.0, 187500.0, 187500.0, 187500.0, 187500.0, 187500.0, 10788.538847987515, -181389.12247289688, 0.054, 0.008, 0.978, 192.0, 0.0, 0.0, 0.0, 0.0, 0.0, 0.0, 0.0, 0.0, 0.0, 1.708991752954736E9, 0.0, 2024-02-26 18:55:52.954
134.0, 187500.0, 187500.0, 187500.0, 187500.0, 187500.0, 187500.0, 11071.869560702988, -181471.8239273815, 0.054, 0.008, 0.978, 192.0, 0.0, 0.0, 0.0, 0.0, 0.0, 0.0, 0.0, 0.0, 0.0, 1.708991752957728E9, 0.0, 2024-02-26 18:55:52.957
135.0, 187500.0, 187500.0, 187500.0, 187500.0, 187500.0, 187500.0, 10352.970403786947, -181363.77559468456, 0.054, 0.008, 0.978, 192.0, 0.0, 0.0, 0.0, 0.0, 0.0, 0.0, 0.0, 0.0, 0.0, 1.708991752961727E9, 0.0, 2024-02-26 18:55:52.961
136.0, 187500.0, 187500.0, 187500.0, 187500.0, 187500.0, 187500.0, 10089.37628142551, -181314.06531501596, 0.058, 0.006, 0.98, 192.0, 1.0, 208.0, 0.0, 48.0, 30.0, 160.0, 0.0, 0.0, 0.0, 1.708991752965726E9, 0.0, 2024-02-26 18:55:52.965
137.0, 187500.0, 187500.0, 187500.0, 187500.0, 187500.0, 187500.0, 10461.555178350829, -181352.5103154791, 0.058, 0.006, 0.98, 192.0, 0.0, 0.0, 0.0, 0.0, 0.0, 0.0, 0.0, 0.0, 0.0, 1.708991752969769E9, 0.0, 2024-02-26 18:55:52.969
138.0, 187500.0, 187500.0, 187500.0, 187500.0, 187500.0, 187500.0, 10967.419858863337, -181453.8754765839, 0.058, 0.006, 0.98, 192.0, 0.0, 0.0, 0.0, 0.0, 0.0, 0.0, 0.0, 0.0, 0.0, 1.708991752973772E9, 0.0, 2024-02-26 18:55:52.973
139.0, 187500.0, 187500.0, 187500.0, 187500.0, 187500.0, 187500.0, 10369.533046428329, -181378.93007742526, 0.058, 0.006, 0.98, 192.0, 0.0, 0.0, 0.0, 0.0, 0.0, 0.0, 0.0, 0.0, 0.0, 1.708991752978763E9, 0.0, 2024-02-26 18:55:52.978
140.0, 187500.0, 187500.0, 187500.0, 187500.0, 187500.0, 187500.0, 9935.104541194982, -181318.4015534403, 0.058, 0.006, 0.98, 192.0, 0.0, 0.0, 0.0, 0.0, 0.0, 0.0, 0.0, 0.0, 0.0, 1.708991752982768E9, 0.0, 2024-02-26 18:55:52.982
141.0, 187500.0, 187500.0, 187500.0, 187500.0, 187500.0, 187500.0, 10108.95640956836, -181332.3043384915, 0.058, 0.006, 0.98, 192.0, 0.0, 0.0, 0.0, 0.0, 0.0, 0.0, 0.0, 0.0, 0.0, 1.708991752985772E9, 0.0, 2024-02-26 18:55:52.985
142.0, 187500.0, 187500.0, 187500.0, 187500.0, 187500.0, 187500.0, 10749.982088802111, -181471.84627912598, 0.058, 0.006, 0.98, 192.0, 0.0, 0.0, 0.0, 0.0, 0.0, 0.0, 0.0, 0.0, 0.0, 1.708991752989762E9, 0.0, 2024-02-26 18:55:52.989
143.0, 187500.0, 187500.0, 187500.0, 187500.0, 187500.0, 187500.0, 10386.430965236541, -181412.05536270802, 0.058, 0.006, 0.98, 192.0, 0.0, 0.0, 0.0, 0.0, 0.0, 0.0, 0.0, 0.0, 0.0, 1.708991752993764E9, 0.0, 2024-02-26 18:55:52.993
144.0, 187500.0, 187500.0, 187500.0, 187500.0, 187500.0, 187500.0, 9961.770172330162, -181322.9389575647, 0.058, 0.006, 0.98, 192.0, 0.0, 0.0, 0.0, 0.0, 0.0, 0.0, 0.0, 0.0, 0.0, 1.70899175299776E9, 0.0, 2024-02-26 18:55:52.997
145.0, 187500.0, 187500.0, 187500.0, 187500.0, 187500.0, 187500.0, 10131.263450534756, -181331.41026871328, 0.058, 0.006, 0.98, 192.0, 0.0, 0.0, 0.0, 0.0, 0.0, 0.0, 0.0, 0.0, 0.0, 1.708991753001771E9, 0.0, 2024-02-26 18:55:53.001
146.0, 187500.0, 187500.0, 187500.0, 187500.0, 187500.0, 187500.0, 10791.891609655811, -181457.36234871895, 0.056, 0.012, 0.978, 192.0, 1.0, 192.0, 0.0, 96.0, 30.0, 144.0, 0.0, 0.0, 0.0, 1.708991753006769E9, 0.0, 2024-02-26 18:55:53.006
147.0, 187500.0, 187500.0, 187500.0, 187500.0, 187500.0, 187500.0, 10628.76857862098, -181434.36240367443, 0.056, 0.012, 0.978, 192.0, 0.0, 0.0, 0.0, 0.0, 0.0, 0.0, 0.0, 0.0, 0.0, 1.708991753010762E9, 0.0, 2024-02-26 18:55:53.010
148.0, 187500.0, 187500.0, 187500.0, 187500.0, 187500.0, 187500.0, 10148.563700743163, -181333.01959431407, 0.056, 0.012, 0.978, 192.0, 0.0, 0.0, 0.0, 0.0, 0.0, 0.0, 0.0, 0.0, 0.0, 1.708991753013757E9, 0.0, 2024-02-26 18:55:53.013
149.0, 187500.0, 187500.0, 187500.0, 187500.0, 187500.0, 187500.0, 10301.874315962115, -181318.289794718, 0.056, 0.012, 0.978, 192.0, 0.0, 0.0, 0.0, 0.0, 0.0, 0.0, 0.0, 0.0, 0.0, 1.70899175301778E9, 0.0, 2024-02-26 18:55:53.017
150.0, 187500.0, 187500.0, 187500.0, 187500.0, 187500.0, 187500.0, 10996.343016188504, -181437.98338627617, 0.056, 0.012, 0.978, 192.0, 0.0, 0.0, 0.0, 0.0, 0.0, 0.0, 0.0, 0.0, 0.0, 1.708991753021779E9, 0.0, 2024-02-26 18:55:53.021
151.0, 187500.0, 187500.0, 187500.0, 187500.0, 187500.0, 187500.0, 11010.446966939804, -181459.083433042, 0.056, 0.012, 0.978, 192.0, 0.0, 0.0, 0.0, 0.0, 0.0, 0.0, 0.0, 0.0, 0.0, 1.708991753025813E9, 0.0, 2024-02-26 18:55:53.025
152.0, 187500.0, 187500.0, 187500.0, 187500.0, 187500.0, 187500.0, 10414.594163250227, -181331.9914140691, 0.056, 0.012, 0.978, 192.0, 0.0, 0.0, 0.0, 0.0, 0.0, 0.0, 0.0, 0.0, 0.0, 1.70899175302982E9, 0.0, 2024-02-26 18:55:53.029
153.0, 187500.0, 187500.0, 187500.0, 187500.0, 187500.0, 187500.0, 10405.698168957017, -181310.33257369194, 0.056, 0.012, 0.978, 192.0, 0.0, 0.0, 0.0, 0.0, 0.0, 0.0, 0.0, 0.0, 0.0, 1.708991753034801E9, 0.0, 2024-02-26 18:55:53.034
154.0, 187500.0, 187500.0, 187500.0, 187500.0, 187500.0, 187500.0, 10942.587070773492, -181396.94558345625, 0.056, 0.012, 0.978, 192.0, 0.0, 0.0, 0.0, 0.0, 0.0, 0.0, 0.0, 0.0, 0.0, 1.708991753038803E9, 0.0, 2024-02-26 18:55:53.038
155.0, 187500.0, 187500.0, 187500.0, 187500.0, 187500.0, 187500.0, 11103.564334340614, -181465.9230668453, 0.056, 0.012, 0.978, 192.0, 0.0, 0.0, 0.0, 0.0, 0.0, 0.0, 0.0, 0.0, 0.0, 1.708991753041826E9, 0.0, 2024-02-26 18:55:53.041
156.0, 187500.0, 187500.0, 187500.0, 187500.0, 187500.0, 187500.0, 10395.997511863412, -181343.7484316526, 0.06, 0.014, 0.976, 192.0, 1.0, 224.0, 0.0, 112.0, 30.0, 128.0, 0.0, 0.0, 0.0, 1.70899175304582E9, 0.0, 2024-02-26 18:55:53.045
157.0, 187500.0, 187500.0, 187500.0, 187500.0, 187500.0, 187500.0, 10245.994954823847, -181304.90109978928, 0.06, 0.014, 0.976, 192.0, 0.0, 0.0, 0.0, 0.0, 0.0, 0.0, 0.0, 0.0, 0.0, 1.708991753049824E9, 0.0, 2024-02-26 18:55:53.049
158.0, 187500.0, 187500.0, 187500.0, 187500.0, 187500.0, 187500.0, 10724.612858845338, -181370.03408313205, 0.06, 0.014, 0.976, 192.0, 0.0, 0.0, 0.0, 0.0, 0.0, 0.0, 0.0, 0.0, 0.0, 1.708991753053823E9, 0.0, 2024-02-26 18:55:53.053
159.0, 187500.0, 187500.0, 187500.0, 187500.0, 187500.0, 187500.0, 11094.020139458196, -181470.59458143648, 0.06, 0.014, 0.976, 192.0, 0.0, 0.0, 0.0, 0.0, 0.0, 0.0, 0.0, 0.0, 0.0, 1.708991753057834E9, 0.0, 2024-02-26 18:55:53.057
160.0, 187500.0, 187500.0, 187500.0, 187500.0, 187500.0, 187500.0, 10378.116116299167, -181362.99328362863, 0.06, 0.014, 0.976, 192.0, 0.0, 0.0, 0.0, 0.0, 0.0, 0.0, 0.0, 0.0, 0.0, 1.708991753061819E9, 0.0, 2024-02-26 18:55:53.061
161.0, 187500.0, 187500.0, 187500.0, 187500.0, 187500.0, 187500.0, 10055.46868508681, -181315.58523363894, 0.06, 0.014, 0.976, 192.0, 0.0, 0.0, 0.0, 0.0, 0.0, 0.0, 0.0, 0.0, 0.0, 1.708991753066845E9, 0.0, 2024-02-26 18:55:53.066
162.0, 187500.0, 187500.0, 187500.0, 187500.0, 187500.0, 187500.0, 10356.18905498851, -181342.07205081847, 0.06, 0.014, 0.976, 192.0, 0.0, 0.0, 0.0, 0.0, 0.0, 0.0, 0.0, 0.0, 0.0, 1.708991753069868E9, 0.0, 2024-02-26 18:55:53.069
163.0, 187500.0, 187500.0, 187500.0, 187500.0, 187500.0, 187500.0, 10944.665783007835, -181464.89488660038, 0.06, 0.014, 0.976, 192.0, 0.0, 0.0, 0.0, 0.0, 0.0, 0.0, 0.0, 0.0, 0.0, 1.708991753073859E9, 0.0, 2024-02-26 18:55:53.073
164.0, 187500.0, 187500.0, 187500.0, 187500.0, 187500.0, 187500.0, 10525.168243070631, -181386.0155804176, 0.06, 0.014, 0.976, 192.0, 0.0, 0.0, 0.0, 0.0, 0.0, 0.0, 0.0, 0.0, 0.0, 1.708991753077907E9, 0.0, 2024-02-26 18:55:53.077
165.0, 187500.0, 187500.0, 187500.0, 187500.0, 187500.0, 187500.0, 10226.392474936543, -181310.17611148075, 0.06, 0.014, 0.976, 192.0, 0.0, 0.0, 0.0, 0.0, 0.0, 0.0, 0.0, 0.0, 0.0, 1.708991753081907E9, 0.0, 2024-02-26 18:55:53.081
166.0, 187500.0, 187500.0, 187500.0, 187500.0, 187500.0, 187500.0, 10492.713510121526, -181320.92730056375, 0.06, 0.008, 0.982, 192.0, 1.0, 224.0, 0.0, 64.0, 30.0, 176.0, 0.0, 0.0, 0.0, 1.708991753085863E9, 0.0, 2024-02-26 18:55:53.085
167.0, 187500.0, 187500.0, 187500.0, 187500.0, 187500.0, 187500.0, 11108.571125098602, -181450.43330793778, 0.06, 0.008, 0.982, 192.0, 0.0, 0.0, 0.0, 0.0, 0.0, 0.0, 0.0, 0.0, 0.0, 1.708991753089866E9, 0.0, 2024-02-26 18:55:53.089
168.0, 187500.0, 187500.0, 187500.0, 187500.0, 187500.0, 187500.0, 10748.395114945784, -181391.8046822315, 0.06, 0.008, 0.982, 192.0, 0.0, 0.0, 0.0, 0.0, 0.0, 0.0, 0.0, 0.0, 0.0, 1.708991753093871E9, 0.0, 2024-02-26 18:55:53.093
169.0, 187500.0, 187500.0, 187500.0, 187500.0, 187500.0, 187500.0, 10334.32904891122, -181306.59983236788, 0.06, 0.008, 0.982, 192.0, 0.0, 0.0, 0.0, 0.0, 0.0, 0.0, 0.0, 0.0, 0.0, 1.708991753096893E9, 0.0, 2024-02-26 18:55:53.096
170.0, 187500.0, 187500.0, 187500.0, 187500.0, 187500.0, 187500.0, 10519.580306956805, -181311.80778882597, 0.06, 0.008, 0.982, 192.0, 0.0, 0.0, 0.0, 0.0, 0.0, 0.0, 0.0, 0.0, 0.0, 1.708991753101924E9, 0.0, 2024-02-26 18:55:53.101
171.0, 187500.0, 187500.0, 187500.0, 187500.0, 187500.0, 187500.0, 11159.376640245515, -181426.24872043714, 0.06, 0.008, 0.982, 192.0, 0.0, 0.0, 0.0, 0.0, 0.0, 0.0, 0.0, 0.0, 0.0, 1.7089917531059E9, 0.0, 2024-02-26 18:55:53.105
172.0, 187500.0, 187500.0, 187500.0, 187500.0, 187500.0, 187500.0, 10995.091318499008, -181424.2817669251, 0.06, 0.008, 0.982, 192.0, 0.0, 0.0, 0.0, 0.0, 0.0, 0.0, 0.0, 0.0, 0.0, 1.708991753109916E9, 0.0, 2024-02-26 18:55:53.109
173.0, 187500.0, 187500.0, 187500.0, 187500.0, 187500.0, 187500.0, 10413.163651605088, -181319.65325112978, 0.06, 0.008, 0.982, 192.0, 0.0, 0.0, 0.0, 0.0, 0.0, 0.0, 0.0, 0.0, 0.0, 1.708991753113913E9, 0.0, 2024-02-26 18:55:53.113
174.0, 187500.0, 187500.0, 187500.0, 187500.0, 187500.0, 187500.0, 10462.15867545112, -181294.03815198402, 0.06, 0.008, 0.982, 192.0, 0.0, 0.0, 0.0, 0.0, 0.0, 0.0, 0.0, 0.0, 0.0, 1.708991753117899E9, 0.0, 2024-02-26 18:55:53.117
175.0, 187500.0, 187500.0, 187500.0, 187500.0, 187500.0, 187500.0, 11063.532360021158, -181393.95044969922, 0.06, 0.008, 0.982, 192.0, 0.0, 0.0, 0.0, 0.0, 0.0, 0.0, 0.0, 0.0, 0.0, 1.708991753121893E9, 0.0, 2024-02-26 18:55:53.121
176.0, 187500.0, 187500.0, 187500.0, 187500.0, 187500.0, 187500.0, 11106.425357630893, -181423.8794355249, 0.062, 0.01, 0.98, 192.0, 1.0, 240.0, 0.0, 80.0, 30.0, 160.0, 0.0, 0.0, 0.0, 1.708991753124935E9, 0.0, 2024-02-26 18:55:53.124
177.0, 187500.0, 187500.0, 187500.0, 187500.0, 187500.0, 187500.0, 10421.16557612009, -181332.57255942497, 0.062, 0.01, 0.98, 192.0, 0.0, 0.0, 0.0, 0.0, 0.0, 0.0, 0.0, 0.0, 0.0, 1.708991753128934E9, 0.0, 2024-02-26 18:55:53.128
178.0, 187500.0, 187500.0, 187500.0, 187500.0, 187500.0, 187500.0, 10278.181466839489, -181297.83794854142, 0.062, 0.01, 0.98, 192.0, 0.0, 0.0, 0.0, 0.0, 0.0, 0.0, 0.0, 0.0, 0.0, 1.708991753133947E9, 0.0, 2024-02-26 18:55:53.133
179.0, 187500.0, 187500.0, 187500.0, 187500.0, 187500.0, 187500.0, 10782.459173495672, -181374.21385934518, 0.062, 0.01, 0.98, 192.0, 0.0, 0.0, 0.0, 0.0, 0.0, 0.0, 0.0, 0.0, 0.0, 1.708991753137962E9, 0.0, 2024-02-26 18:55:53.137
180.0, 187500.0, 187500.0, 187500.0, 187500.0, 187500.0, 187500.0, 11126.407817173937, -181455.01541555114, 0.062, 0.01, 0.98, 192.0, 0.0, 0.0, 0.0, 0.0, 0.0, 0.0, 0.0, 0.0, 0.0, 1.708991753141971E9, 0.0, 2024-02-26 18:55:53.141
181.0, 187500.0, 187500.0, 187500.0, 187500.0, 187500.0, 187500.0, 10524.452987248062, -181359.7075771937, 0.062, 0.01, 0.98, 192.0, 0.0, 0.0, 0.0, 0.0, 0.0, 0.0, 0.0, 0.0, 0.0, 1.708991753145953E9, 0.0, 2024-02-26 18:55:53.145
182.0, 187500.0, 187500.0, 187500.0, 187500.0, 187500.0, 187500.0, 10240.69759138794, -181310.4443324142, 0.062, 0.01, 0.98, 192.0, 0.0, 0.0, 0.0, 0.0, 0.0, 0.0, 0.0, 0.0, 0.0, 1.708991753149965E9, 0.0, 2024-02-26 18:55:53.149
183.0, 187500.0, 187500.0, 187500.0, 187500.0, 187500.0, 187500.0, 10551.453894550074, -181348.57640845494, 0.062, 0.01, 0.98, 192.0, 0.0, 0.0, 0.0, 0.0, 0.0, 0.0, 0.0, 0.0, 0.0, 1.708991753152957E9, 0.0, 2024-02-26 18:55:53.152
184.0, 187500.0, 187500.0, 187500.0, 187500.0, 187500.0, 187500.0, 10956.847483735977, -181454.14369751737, 0.062, 0.01, 0.98, 192.0, 0.0, 0.0, 0.0, 0.0, 0.0, 0.0, 0.0, 0.0, 0.0, 1.70899175315798E9, 0.0, 2024-02-26 18:55:53.157
185.0, 187500.0, 187500.0, 187500.0, 187500.0, 187500.0, 187500.0, 10435.06836117129, -181357.04771960352, 0.06, 0.012, 0.976, 192.0, 1.0, 224.0, 0.0, 96.0, 30.0, 128.0, 0.0, 0.0, 0.0, 1.708991753161956E9, 0.0, 2024-02-26 18:55:53.161
186.0, 187500.0, 187500.0, 187500.0, 187500.0, 187500.0, 187500.0, 10288.127993122102, -181295.91569851825, 0.06, 0.012, 0.976, 192.0, 0.0, 0.0, 0.0, 0.0, 0.0, 0.0, 0.0, 0.0, 0.0, 1.708991753165965E9, 0.0, 2024-02-26 18:55:53.165
187.0, 187500.0, 187500.0, 187500.0, 187500.0, 187500.0, 187500.0, 10679.060003645422, -181329.3986117123, 0.06, 0.012, 0.976, 192.0, 0.0, 0.0, 0.0, 0.0, 0.0, 0.0, 0.0, 0.0, 0.0, 1.708991753169975E9, 0.0, 2024-02-26 18:55:53.169
188.0, 187500.0, 187500.0, 187500.0, 187500.0, 187500.0, 187500.0, 11225.22487941085, -181455.14952601786, 0.06, 0.012, 0.976, 192.0, 0.0, 0.0, 0.0, 0.0, 0.0, 0.0, 0.0, 0.0, 0.0, 1.70899175317396E9, 0.0, 2024-02-26 18:55:53.173
189.0, 187500.0, 187500.0, 187500.0, 187500.0, 187500.0, 187500.0, 10642.470197972083, -181374.88441167885, 0.06, 0.012, 0.976, 192.0, 0.0, 0.0, 0.0, 0.0, 0.0, 0.0, 0.0, 0.0, 0.0, 1.708991753176956E9, 0.0, 2024-02-26 18:55:53.176
190.0, 187500.0, 187500.0, 187500.0, 187500.0, 187500.0, 187500.0, 10208.555782861207, -181291.2441839271, 0.06, 0.012, 0.976, 192.0, 0.0, 0.0, 0.0, 0.0, 0.0, 0.0, 0.0, 0.0, 0.0, 1.708991753180958E9, 0.0, 2024-02-26 18:55:53.180
191.0, 187500.0, 187500.0, 187500.0, 187500.0, 187500.0, 187500.0, 10357.932491056024, -181325.4423529437, 0.06, 0.012, 0.976, 192.0, 0.0, 0.0, 0.0, 0.0, 0.0, 0.0, 0.0, 0.0, 0.0, 1.708991753184963E9, 0.0, 2024-02-26 18:55:53.184
192.0, 187500.0, 187500.0, 187500.0, 187500.0, 187500.0, 187500.0, 10892.899142849345, -181462.324435988, 0.06, 0.012, 0.976, 192.0, 0.0, 0.0, 0.0, 0.0, 0.0, 0.0, 0.0, 0.0, 0.0, 1.708991753189964E9, 0.0, 2024-02-26 18:55:53.189
193.0, 187500.0, 187500.0, 187500.0, 187500.0, 187500.0, 187500.0, 10502.570629426316, -181411.25069990763, 0.06, 0.012, 0.976, 192.0, 0.0, 0.0, 0.0, 0.0, 0.0, 0.0, 0.0, 0.0, 0.0, 1.708991753194018E9, 0.0, 2024-02-26 18:55:53.194
194.0, 187500.0, 187500.0, 187500.0, 187500.0, 187500.0, 187500.0, 9970.710870112285, -181304.02938175554, 0.06, 0.012, 0.976, 192.0, 0.0, 0.0, 0.0, 0.0, 0.0, 0.0, 0.0, 0.0, 0.0, 1.708991753198026E9, 0.0, 2024-02-26 18:55:53.198
195.0, 187500.0, 187500.0, 187500.0, 187500.0, 187500.0, 187500.0, 10065.795191025161, -181314.26648071606, 0.058, 0.014, 0.978, 192.0, 1.0, 208.0, 0.0, 112.0, 30.0, 144.0, 0.0, 0.0, 0.0, 1.708991753204011E9, 0.0, 2024-02-26 18:55:53.204
196.0, 187500.0, 187500.0, 187500.0, 187500.0, 187500.0, 187500.0, 10646.493511974038, -181437.40224092035, 0.058, 0.014, 0.978, 192.0, 0.0, 0.0, 0.0, 0.0, 0.0, 0.0, 0.0, 0.0, 0.0, 1.708991753207034E9, 0.0, 2024-02-26 18:55:53.207
197.0, 187500.0, 187500.0, 187500.0, 187500.0, 187500.0, 187500.0, 10415.44352953953, -181429.40031640534, 0.058, 0.014, 0.978, 192.0, 0.0, 0.0, 0.0, 0.0, 0.0, 0.0, 0.0, 0.0, 0.0, 1.708991753209995E9, 0.0, 2024-02-26 18:55:53.209
198.0, 187500.0, 187500.0, 187500.0, 187500.0, 187500.0, 187500.0, 9685.212038184649, -181307.78447482403, 0.058, 0.014, 0.978, 192.0, 0.0, 0.0, 0.0, 0.0, 0.0, 0.0, 0.0, 0.0, 0.0, 1.708991753213993E9, 0.0, 2024-02-26 18:55:53.213
199.0, 187500.0, 187500.0, 187500.0, 187500.0, 187500.0, 187500.0, 9546.050077205906, -181300.85543404287, 0.058, 0.014, 0.978, 192.0, 0.0, 0.0, 0.0, 0.0, 0.0, 0.0, 0.0, 0.0, 0.0, 1.708991753218041E9, 0.0, 2024-02-26 18:55:53.218
200.0, 187500.0, 187500.0, 187500.0, 187500.0, 187500.0, 187500.0, 9967.246349721712, -181403.69581028173, 0.058, 0.014, 0.978, 192.0, 0.0, 0.0, 0.0, 0.0, 0.0, 0.0, 0.0, 0.0, 0.0, 1.708991753222424E9, 0.0, 2024-02-26 18:55:53.222
201.0, 187500.0, 187500.0, 187500.0, 187500.0, 187500.0, 187500.0, 9910.450567060778, -181445.09124101297, 0.058, 0.014, 0.978, 192.0, 0.0, 0.0, 0.0, 0.0, 0.0, 0.0, 0.0, 0.0, 0.0, 1.708991753225994E9, 0.0, 2024-02-26 18:55:53.225
202.0, 187500.0, 187500.0, 187500.0, 187500.0, 187500.0, 187500.0, 9062.403030681971, -181322.8495505869, 0.058, 0.014, 0.978, 192.0, 0.0, 0.0, 0.0, 0.0, 0.0, 0.0, 0.0, 0.0, 0.0, 1.708991753229991E9, 0.0, 2024-02-26 18:55:53.229
203.0, 187500.0, 187500.0, 187500.0, 187500.0, 187500.0, 187500.0, 8748.49513155164, -181296.83212004093, 0.058, 0.014, 0.978, 192.0, 0.0, 0.0, 0.0, 0.0, 0.0, 0.0, 0.0, 0.0, 0.0, 1.708991753233078E9, 0.0, 2024-02-26 18:55:53.233
204.0, 187500.0, 187500.0, 187500.0, 187500.0, 187500.0, 187500.0, 9078.22806575633, -181395.17979564428, 0.058, 0.014, 0.978, 192.0, 0.0, 0.0, 0.0, 0.0, 0.0, 0.0, 0.0, 0.0, 0.0, 1.708991753237039E9, 0.0, 2024-02-26 18:55:53.237
205.0, 187500.0, 187500.0, 187500.0, 187500.0, 187500.0, 187500.0, 9322.644391375112, -181495.87440441543, 0.054, 0.012, 0.98, 192.0, 1.0, 176.0, 0.0, 96.0, 30.0, 160.0, 0.0, 0.0, 0.0, 1.708991753241036E9, 0.0, 2024-02-26 18:55:53.241
206.0, 187500.0, 187500.0, 187500.0, 187500.0, 187500.0, 187500.0, 8657.635290340817, -181368.89414416483, 0.054, 0.012, 0.98, 192.0, 0.0, 0.0, 0.0, 0.0, 0.0, 0.0, 0.0, 0.0, 0.0, 1.708991753246019E9, 0.0, 2024-02-26 18:55:53.246
207.0, 187500.0, 187500.0, 187500.0, 187500.0, 187500.0, 187500.0, 8395.069348224324, -181305.34813467838, 0.054, 0.012, 0.98, 192.0, 0.0, 0.0, 0.0, 0.0, 0.0, 0.0, 0.0, 0.0, 0.0, 1.70899175325002E9, 0.0, 2024-02-26 18:55:53.250
208.0, 187500.0, 187500.0, 187500.0, 187500.0, 187500.0, 187500.0, 8661.9938805096, -181383.73570248316, 0.054, 0.012, 0.98, 192.0, 0.0, 0.0, 0.0, 0.0, 0.0, 0.0, 0.0, 0.0, 0.0, 1.708991753255036E9, 0.0, 2024-02-26 18:55:53.255
209.0, 187500.0, 187500.0, 187500.0, 187500.0, 187500.0, 187500.0, 8975.58885521756, -181489.01241886764, 0.054, 0.012, 0.98, 192.0, 0.0, 0.0, 0.0, 0.0, 0.0, 0.0, 0.0, 0.0, 0.0, 1.708991753259023E9, 0.0, 2024-02-26 18:55:53.259
210.0, 187500.0, 187500.0, 187500.0, 187500.0, 187500.0, 187500.0, 8389.973150488515, -181373.83387968945, 0.054, 0.012, 0.98, 192.0, 0.0, 0.0, 0.0, 0.0, 0.0, 0.0, 0.0, 0.0, 0.0, 1.708991753262063E9, 0.0, 2024-02-26 18:55:53.262
211.0, 187500.0, 187500.0, 187500.0, 187500.0, 187500.0, 187500.0, 8158.56554014272, -181292.11590196085, 0.054, 0.012, 0.98, 192.0, 0.0, 0.0, 0.0, 0.0, 0.0, 0.0, 0.0, 0.0, 0.0, 1.708991753266092E9, 0.0, 2024-02-26 18:55:53.266
212.0, 187500.0, 187500.0, 187500.0, 187500.0, 187500.0, 187500.0, 8511.521936836474, -181318.33449820694, 0.054, 0.012, 0.98, 192.0, 0.0, 0.0, 0.0, 0.0, 0.0, 0.0, 0.0, 0.0, 0.0, 1.708991753269092E9, 0.0, 2024-02-26 18:55:53.269
213.0, 187500.0, 187500.0, 187500.0, 187500.0, 187500.0, 187500.0, 9180.755517572823, -181447.46052592524, 0.054, 0.012, 0.98, 192.0, 0.0, 0.0, 0.0, 0.0, 0.0, 0.0, 0.0, 0.0, 0.0, 1.708991753275084E9, 0.0, 2024-02-26 18:55:53.275
214.0, 187500.0, 187500.0, 187500.0, 187500.0, 187500.0, 187500.0, 8791.87986753939, -181388.22840311867, 0.054, 0.012, 0.98, 192.0, 0.0, 0.0, 0.0, 0.0, 0.0, 0.0, 0.0, 0.0, 0.0, 1.708991753278075E9, 0.0, 2024-02-26 18:55:53.278
215.0, 187500.0, 187500.0, 187500.0, 187500.0, 187500.0, 187500.0, 8446.500712215986, -181312.65715511527, 0.054, 0.01, 0.974, 192.0, 1.0, 176.0, 0.0, 80.0, 30.0, 112.0, 0.0, 0.0, 0.0, 1.708991753282098E9, 0.0, 2024-02-26 18:55:53.282
216.0, 187500.0, 187500.0, 187500.0, 187500.0, 187500.0, 187500.0, 8752.87607346488, -181301.43657939872, 0.054, 0.01, 0.974, 192.0, 0.0, 0.0, 0.0, 0.0, 0.0, 0.0, 0.0, 0.0, 0.0, 1.708991753285074E9, 0.0, 2024-02-26 18:55:53.285
217.0, 187500.0, 187500.0, 187500.0, 187500.0, 187500.0, 187500.0, 9572.447487407624, -181410.80366501852, 0.054, 0.01, 0.974, 192.0, 0.0, 0.0, 0.0, 0.0, 0.0, 0.0, 0.0, 0.0, 0.0, 1.708991753289091E9, 0.0, 2024-02-26 18:55:53.289
218.0, 187500.0, 187500.0, 187500.0, 187500.0, 187500.0, 187500.0, 9474.010404826451, -181376.38197855736, 0.054, 0.01, 0.974, 192.0, 0.0, 0.0, 0.0, 0.0, 0.0, 0.0, 0.0, 0.0, 0.0, 1.708991753293072E9, 0.0, 2024-02-26 18:55:53.293
219.0, 187500.0, 187500.0, 187500.0, 187500.0, 187500.0, 187500.0, 8994.096099626553, -181327.87869308935, 0.054, 0.01, 0.974, 192.0, 0.0, 0.0, 0.0, 0.0, 0.0, 0.0, 0.0, 0.0, 0.0, 1.708991753297071E9, 0.0, 2024-02-26 18:55:53.297
220.0, 187500.0, 187500.0, 187500.0, 187500.0, 187500.0, 187500.0, 9033.703390801358, -181325.71057387718, 0.054, 0.01, 0.974, 192.0, 0.0, 0.0, 0.0, 0.0, 0.0, 0.0, 0.0, 0.0, 0.0, 1.708991753302085E9, 0.0, 2024-02-26 18:55:53.302
221.0, 187500.0, 187500.0, 187500.0, 187500.0, 187500.0, 187500.0, 9596.252095252526, -181446.00766253565, 0.054, 0.01, 0.974, 192.0, 0.0, 0.0, 0.0, 0.0, 0.0, 0.0, 0.0, 0.0, 0.0, 1.708991753306078E9, 0.0, 2024-02-26 18:55:53.306
222.0, 187500.0, 187500.0, 187500.0, 187500.0, 187500.0, 187500.0, 9513.014198900963, -181459.84339235348, 0.054, 0.01, 0.974, 192.0, 0.0, 0.0, 0.0, 0.0, 0.0, 0.0, 0.0, 0.0, 0.0, 1.708991753310119E9, 0.0, 2024-02-26 18:55:53.310
223.0, 187500.0, 187500.0, 187500.0, 187500.0, 187500.0, 187500.0, 8929.074875006065, -181320.41321044127, 0.054, 0.01, 0.974, 192.0, 0.0, 0.0, 0.0, 0.0, 0.0, 0.0, 0.0, 0.0, 0.0, 1.708991753313112E9, 0.0, 2024-02-26 18:55:53.313
224.0, 187500.0, 187500.0, 187500.0, 187500.0, 187500.0, 187500.0, 8912.623991086959, -181290.48422461562, 0.054, 0.01, 0.974, 192.0, 0.0, 0.0, 0.0, 0.0, 0.0, 0.0, 0.0, 0.0, 0.0, 1.708991753317114E9, 0.0, 2024-02-26 18:55:53.317
225.0, 187500.0, 187500.0, 187500.0, 187500.0, 187500.0, 187500.0, 9489.611922456255, -181381.18760361525, 0.058, 0.012, 0.976, 192.0, 1.0, 208.0, 0.0, 96.0, 30.0, 128.0, 0.0, 0.0, 0.0, 1.708991753321145E9, 0.0, 2024-02-26 18:55:53.321
226.0, 187500.0, 187500.0, 187500.0, 187500.0, 187500.0, 187500.0, 9740.554957455988, -181432.7754298181, 0.058, 0.012, 0.976, 192.0, 0.0, 0.0, 0.0, 0.0, 0.0, 0.0, 0.0, 0.0, 0.0, 1.708991753325137E9, 0.0, 2024-02-26 18:55:53.325
227.0, 187500.0, 187500.0, 187500.0, 187500.0, 187500.0, 187500.0, 9188.019834520797, -181331.11969603537, 0.058, 0.012, 0.976, 192.0, 0.0, 0.0, 0.0, 0.0, 0.0, 0.0, 0.0, 0.0, 0.0, 1.708991753329123E9, 0.0, 2024-02-26 18:55:53.329
228.0, 187500.0, 187500.0, 187500.0, 187500.0, 187500.0, 187500.0, 9186.835192064666, -181282.5940588229, 0.058, 0.012, 0.976, 192.0, 0.0, 0.0, 0.0, 0.0, 0.0, 0.0, 0.0, 0.0, 0.0, 1.708991753334122E9, 0.0, 2024-02-26 18:55:53.334
229.0, 187500.0, 187500.0, 187500.0, 187500.0, 187500.0, 187500.0, 9784.945521944228, -181343.39080374132, 0.058, 0.012, 0.976, 192.0, 0.0, 0.0, 0.0, 0.0, 0.0, 0.0, 0.0, 0.0, 0.0, 1.708991753338129E9, 0.0, 2024-02-26 18:55:53.338
230.0, 187500.0, 187500.0, 187500.0, 187500.0, 187500.0, 187500.0, 10258.400172996542, -181426.0252029926, 0.058, 0.012, 0.976, 192.0, 0.0, 0.0, 0.0, 0.0, 0.0, 0.0, 0.0, 0.0, 0.0, 1.708991753341121E9, 0.0, 2024-02-26 18:55:53.341
231.0, 187500.0, 187500.0, 187500.0, 187500.0, 187500.0, 187500.0, 9710.11188150786, -181332.41609721378, 0.058, 0.012, 0.976, 192.0, 0.0, 0.0, 0.0, 0.0, 0.0, 0.0, 0.0, 0.0, 0.0, 1.708991753345132E9, 0.0, 2024-02-26 18:55:53.345
232.0, 187500.0, 187500.0, 187500.0, 187500.0, 187500.0, 187500.0, 9563.707955325599, -181287.73496004762, 0.058, 0.012, 0.976, 192.0, 0.0, 0.0, 0.0, 0.0, 0.0, 0.0, 0.0, 0.0, 0.0, 1.708991753349128E9, 0.0, 2024-02-26 18:55:53.349
233.0, 187500.0, 187500.0, 187500.0, 187500.0, 187500.0, 187500.0, 9937.652640062886, -181312.92537604875, 0.058, 0.012, 0.976, 192.0, 0.0, 0.0, 0.0, 0.0, 0.0, 0.0, 0.0, 0.0, 0.0, 1.708991753353186E9, 0.0, 2024-02-26 18:55:53.353
234.0, 187500.0, 187500.0, 187500.0, 187500.0, 187500.0, 187500.0, 10391.281293783342, -181414.29053715355, 0.058, 0.012, 0.976, 192.0, 0.0, 0.0, 0.0, 0.0, 0.0, 0.0, 0.0, 0.0, 0.0, 1.708991753357179E9, 0.0, 2024-02-26 18:55:53.357
235.0, 187500.0, 187500.0, 187500.0, 187500.0, 187500.0, 187500.0, 9825.960973019717, -181345.33540550893, 0.056, 0.01, 0.97, 192.0, 1.0, 192.0, 0.0, 80.0, 30.0, 80.0, 0.0, 0.0, 0.0, 1.708991753362137E9, 0.0, 2024-02-26 18:55:53.362
236.0, 187500.0, 187500.0, 187500.0, 187500.0, 187500.0, 187500.0, 9441.399209666159, -181287.95847749215, 0.056, 0.01, 0.97, 192.0, 0.0, 0.0, 0.0, 0.0, 0.0, 0.0, 0.0, 0.0, 0.0, 1.708991753366174E9, 0.0, 2024-02-26 18:55:53.366
237.0, 187500.0, 187500.0, 187500.0, 187500.0, 187500.0, 187500.0, 9722.226527002636, -181311.18193998124, 0.056, 0.01, 0.97, 192.0, 0.0, 0.0, 0.0, 0.0, 0.0, 0.0, 0.0, 0.0, 0.0, 1.708991753369179E9, 0.0, 2024-02-26 18:55:53.369
238.0, 187500.0, 187500.0, 187500.0, 187500.0, 187500.0, 187500.0, 10403.887677656136, -181434.76473507463, 0.056, 0.01, 0.97, 192.0, 0.0, 0.0, 0.0, 0.0, 0.0, 0.0, 0.0, 0.0, 0.0, 1.708991753373174E9, 0.0, 2024-02-26 18:55:53.373
239.0, 187500.0, 187500.0, 187500.0, 187500.0, 187500.0, 187500.0, 10062.487132845776, -181377.56662101348, 0.056, 0.01, 0.97, 192.0, 0.0, 0.0, 0.0, 0.0, 0.0, 0.0, 0.0, 0.0, 0.0, 1.708991753377169E9, 0.0, 2024-02-26 18:55:53.377
240.0, 187500.0, 187500.0, 187500.0, 187500.0, 187500.0, 187500.0, 9605.863345368309, -181284.51630884604, 0.056, 0.01, 0.97, 192.0, 0.0, 0.0, 0.0, 0.0, 0.0, 0.0, 0.0, 0.0, 0.0, 1.708991753381169E9, 0.0, 2024-02-26 18:55:53.381
241.0, 187500.0, 187500.0, 187500.0, 187500.0, 187500.0, 187500.0, 9729.893175350808, -181285.544489091, 0.056, 0.01, 0.97, 192.0, 0.0, 0.0, 0.0, 0.0, 0.0, 0.0, 0.0, 0.0, 0.0, 1.708991753385189E9, 0.0, 2024-02-26 18:55:53.385
242.0, 187500.0, 187500.0, 187500.0, 187500.0, 187500.0, 187500.0, 10378.63020642164, -181423.05242098004, 0.056, 0.01, 0.97, 192.0, 0.0, 0.0, 0.0, 0.0, 0.0, 0.0, 0.0, 0.0, 0.0, 1.708991753390189E9, 0.0, 2024-02-26 18:55:53.390
243.0, 187500.0, 187500.0, 187500.0, 187500.0, 187500.0, 187500.0, 10191.948436730914, -181405.7745225161, 0.056, 0.01, 0.97, 192.0, 0.0, 0.0, 0.0, 0.0, 0.0, 0.0, 0.0, 0.0, 0.0, 1.708991753393207E9, 0.0, 2024-02-26 18:55:53.393
244.0, 187500.0, 187500.0, 187500.0, 187500.0, 187500.0, 187500.0, 9631.903127658741, -181306.62218411235, 0.056, 0.01, 0.97, 192.0, 0.0, 0.0, 0.0, 0.0, 0.0, 0.0, 0.0, 0.0, 0.0, 1.708991753398219E9, 0.0, 2024-02-26 18:55:53.398
245.0, 187500.0, 187500.0, 187500.0, 187500.0, 187500.0, 187500.0, 9616.458072240124, -181296.20627119616, 0.062, 0.01, 0.972, 192.0, 1.0, 240.0, 0.0, 80.0, 30.0, 96.0, 0.0, 0.0, 0.0, 1.708991753401218E9, 0.0, 2024-02-26 18:55:53.401
246.0, 187500.0, 187500.0, 187500.0, 187500.0, 187500.0, 187500.0, 10090.560923881641, -181416.324545899, 0.062, 0.01, 0.972, 192.0, 0.0, 0.0, 0.0, 0.0, 0.0, 0.0, 0.0, 0.0, 0.0, 1.708991753405219E9, 0.0, 2024-02-26 18:55:53.405
247.0, 187500.0, 187500.0, 187500.0, 187500.0, 187500.0, 187500.0, 9901.666331489841, -181447.68404336978, 0.062, 0.01, 0.972, 192.0, 0.0, 0.0, 0.0, 0.0, 0.0, 0.0, 0.0, 0.0, 0.0, 1.70899175340922E9, 0.0, 2024-02-26 18:55:53.409
248.0, 187500.0, 187500.0, 187500.0, 187500.0, 187500.0, 187500.0, 9126.083150635142, -181297.88265203033, 0.062, 0.01, 0.972, 192.0, 0.0, 0.0, 0.0, 0.0, 0.0, 0.0, 0.0, 0.0, 0.0, 1.708991753413233E9, 0.0, 2024-02-26 18:55:53.413
249.0, 187500.0, 187500.0, 187500.0, 187500.0, 187500.0, 187500.0, 9039.7830652932, -181277.1402331758, 0.062, 0.01, 0.972, 192.0, 0.0, 0.0, 0.0, 0.0, 0.0, 0.0, 0.0, 0.0, 0.0, 1.708991753418214E9, 0.0, 2024-02-26 18:55:53.418
250.0, 187500.0, 187500.0, 187500.0, 187500.0, 187500.0, 187500.0, 9523.094835650307, -181386.03793216206, 0.062, 0.01, 0.972, 192.0, 0.0, 0.0, 0.0, 0.0, 0.0, 0.0, 0.0, 0.0, 0.0, 1.708991753422219E9, 0.0, 2024-02-26 18:55:53.422
251.0, 187500.0, 187500.0, 187500.0, 187500.0, 187500.0, 187500.0, 9560.668118079677, -181452.8249445945, 0.062, 0.01, 0.972, 192.0, 0.0, 0.0, 0.0, 0.0, 0.0, 0.0, 0.0, 0.0, 0.0, 1.708991753425203E9, 0.0, 2024-02-26 18:55:53.425
252.0, 187500.0, 187500.0, 187500.0, 187500.0, 187500.0, 187500.0, 8679.562351651473, -181315.56288189447, 0.062, 0.01, 0.972, 192.0, 0.0, 0.0, 0.0, 0.0, 0.0, 0.0, 0.0, 0.0, 0.0, 1.708991753429283E9, 0.0, 2024-02-26 18:55:53.429
253.0, 187500.0, 187500.0, 187500.0, 187500.0, 187500.0, 187500.0, 8328.438798003053, -181274.6815412857, 0.062, 0.01, 0.972, 192.0, 0.0, 0.0, 0.0, 0.0, 0.0, 0.0, 0.0, 0.0, 0.0, 1.708991753433264E9, 0.0, 2024-02-26 18:55:53.433
254.0, 187500.0, 187500.0, 187500.0, 187500.0, 187500.0, 187500.0, 8641.296165143987, -181363.19444932873, 0.062, 0.01, 0.972, 192.0, 0.0, 0.0, 0.0, 0.0, 0.0, 0.0, 0.0, 0.0, 0.0, 1.708991753437261E9, 0.0, 2024-02-26 18:55:53.437
255.0, 187500.0, 187500.0, 187500.0, 187500.0, 187500.0, 187500.0, 9043.001716494766, -181479.66938968532, 0.064, 0.008, 0.976, 192.0, 2.0, 0.0, 0.0, 64.0, 30.0, 128.0, 0.0, 0.0, 0.0, 1.708991753441247E9, 0.0, 2024-02-26 18:55:53.441
0.0, 187500.0, 187500.0, 187500.0, 187500.0, 187500.0, 187500.0, 8650.147455948289, -181366.0107691301, 0.064, 0.008, 0.976, 192.0, 0.0, 0.0, 0.0, 0.0, 0.0, 0.0, 0.0, 0.0, 0.0, 1.708991753446251E9, 0.0, 2024-02-26 18:55:53.446
1.0, 187500.0, 187500.0, 187500.0, 187500.0, 187500.0, 187500.0, 8890.56281930957, -181290.30541065996, 0.064, 0.008, 0.976, 192.0, 0.0, 0.0, 0.0, 0.0, 0.0, 0.0, 0.0, 0.0, 0.0, 1.708991753449245E9, 0.0, 2024-02-26 18:55:53.449
2.0, 187500.0, 187500.0, 187500.0, 187500.0, 187500.0, 187500.0, 9730.407265473279, -181295.98275375162, 0.064, 0.008, 0.976, 192.0, 0.0, 0.0, 0.0, 0.0, 0.0, 0.0, 0.0, 0.0, 0.0, 1.708991753452262E9, 0.0, 2024-02-26 18:55:53.452
3.0, 187500.0, 187500.0, 187500.0, 187500.0, 187500.0, 187500.0, 10292.039548401779, -181415.45282786523, 0.064, 0.008, 0.976, 192.0, 0.0, 0.0, 0.0, 0.0, 0.0, 0.0, 0.0, 0.0, 0.0, 1.708991753457259E9, 0.0, 2024-02-26 18:55:53.457
4.0, 187500.0, 187500.0, 187500.0, 187500.0, 187500.0, 187500.0, 9336.971859570964, -181356.37716726985, 0.064, 0.008, 0.976, 192.0, 0.0, 0.0, 0.0, 0.0, 0.0, 0.0, 0.0, 0.0, 0.0, 1.708991753461255E9, 0.0, 2024-02-26 18:55:53.461
5.0, 187500.0, 187500.0, 187500.0, 187500.0, 187500.0, 187500.0, 8552.000946045035, -181287.0420559695, 0.064, 0.008, 0.976, 192.0, 0.0, 0.0, 0.0, 0.0, 0.0, 0.0, 0.0, 0.0, 0.0, 1.708991753465244E9, 0.0, 2024-02-26 18:55:53.465
6.0, 187500.0, 187500.0, 187500.0, 187500.0, 187500.0, 187500.0, 8855.694097959293, -181305.95163177868, 0.064, 0.008, 0.976, 192.0, 0.0, 0.0, 0.0, 0.0, 0.0, 0.0, 0.0, 0.0, 0.0, 1.70899175346929E9, 0.0, 2024-02-26 18:55:53.469
7.0, 187500.0, 187500.0, 187500.0, 187500.0, 187500.0, 187500.0, 9852.067810543514, -181427.61217684892, 0.064, 0.008, 0.976, 192.0, 0.0, 0.0, 0.0, 0.0, 0.0, 0.0, 0.0, 0.0, 0.0, 1.70899175347329E9, 0.0, 2024-02-26 18:55:53.473
8.0, 187500.0, 187500.0, 187500.0, 187500.0, 187500.0, 187500.0, 9706.267381461546, -181373.58801050045, 0.064, 0.008, 0.976, 192.0, 0.0, 0.0, 0.0, 0.0, 0.0, 0.0, 0.0, 0.0, 0.0, 1.708991753477288E9, 0.0, 2024-02-26 18:55:53.477
9.0, 187500.0, 187500.0, 187500.0, 187500.0, 187500.0, 187500.0, 9062.291271959695, -181289.67956181522, 0.062, 0.008, 0.98, 192.0, 1.0, 240.0, 0.0, 64.0, 30.0, 160.0, 0.0, 0.0, 0.0, 1.70899175348028E9, 0.0, 2024-02-26 18:55:53.480
10.0, 187500.0, 187500.0, 187500.0, 187500.0, 187500.0, 187500.0, 8878.85050521499, -181294.12755896183, 0.062, 0.008, 0.98, 192.0, 0.0, 0.0, 0.0, 0.0, 0.0, 0.0, 0.0, 0.0, 0.0, 1.708991753485294E9, 0.0, 2024-02-26 18:55:53.485
11.0, 187500.0, 187500.0, 187500.0, 187500.0, 187500.0, 187500.0, 9413.526584330391, -181419.81141803402, 0.062, 0.008, 0.98, 192.0, 0.0, 0.0, 0.0, 0.0, 0.0, 0.0, 0.0, 0.0, 0.0, 1.708991753489298E9, 0.0, 2024-02-26 18:55:53.489
12.0, 187500.0, 187500.0, 187500.0, 187500.0, 187500.0, 187500.0, 9411.71609302951, -181412.03301096358, 0.062, 0.008, 0.98, 192.0, 0.0, 0.0, 0.0, 0.0, 0.0, 0.0, 0.0, 0.0, 0.0, 1.708991753493287E9, 0.0, 2024-02-26 18:55:53.493
13.0, 187500.0, 187500.0, 187500.0, 187500.0, 187500.0, 187500.0, 8952.34304098404, -181302.50946313256, 0.062, 0.008, 0.98, 192.0, 0.0, 0.0, 0.0, 0.0, 0.0, 0.0, 0.0, 0.0, 0.0, 1.708991753497302E9, 0.0, 2024-02-26 18:55:53.497
14.0, 187500.0, 187500.0, 187500.0, 187500.0, 187500.0, 187500.0, 9003.260314853229, -181279.91184948824, 0.062, 0.008, 0.98, 192.0, 0.0, 0.0, 0.0, 0.0, 0.0, 0.0, 0.0, 0.0, 0.0, 1.708991753503319E9, 0.0, 2024-02-26 18:55:53.503
15.0, 187500.0, 187500.0, 187500.0, 187500.0, 187500.0, 187500.0, 9617.598011207345, -181385.56854552848, 0.062, 0.008, 0.98, 192.0, 0.0, 0.0, 0.0, 0.0, 0.0, 0.0, 0.0, 0.0, 0.0, 1.708991753506311E9, 0.0, 2024-02-26 18:55:53.506
16.0, 187500.0, 187500.0, 187500.0, 187500.0, 187500.0, 187500.0, 9880.946264379772, -181419.6773075673, 0.062, 0.008, 0.98, 192.0, 0.0, 0.0, 0.0, 0.0, 0.0, 0.0, 0.0, 0.0, 0.0, 1.708991753509366E9, 0.0, 2024-02-26 18:55:53.509
17.0, 187500.0, 187500.0, 187500.0, 187500.0, 187500.0, 187500.0, 9565.518446626478, -181326.71640237767, 0.062, 0.008, 0.98, 192.0, 0.0, 0.0, 0.0, 0.0, 0.0, 0.0, 0.0, 0.0, 0.0, 1.708991753513331E9, 0.0, 2024-02-26 18:55:53.513
18.0, 187500.0, 187500.0, 187500.0, 187500.0, 187500.0, 187500.0, 9750.233262805135, -181289.05371297046, 0.062, 0.008, 0.98, 192.0, 1.0, 240.0, 0.0, 64.0, 30.0, 160.0, 0.0, 0.0, 0.0, 1.70899175351734E9, 0.0, 2024-02-26 18:55:53.517
19.0, 187500.0, 187500.0, 187500.0, 187500.0, 187500.0, 187500.0, 10287.189219854978, -181345.6036264424, 0.062, 0.008, 0.98, 192.0, 0.0, 0.0, 0.0, 0.0, 0.0, 0.0, 0.0, 0.0, 0.0, 1.708991753521348E9, 0.0, 2024-02-26 18:55:53.521
20.0, 187500.0, 187500.0, 187500.0, 187500.0, 187500.0, 187500.0, 10488.936065308579, -181418.827941278, 0.062, 0.008, 0.98, 192.0, 0.0, 0.0, 0.0, 0.0, 0.0, 0.0, 0.0, 0.0, 0.0, 1.708991753525351E9, 0.0, 2024-02-26 18:55:53.525
21.0, 187500.0, 187500.0, 187500.0, 187500.0, 187500.0, 187500.0, 9774.976643917162, -181328.32572797846, 0.062, 0.008, 0.98, 192.0, 0.0, 0.0, 0.0, 0.0, 0.0, 0.0, 0.0, 0.0, 0.0, 1.70899175352834E9, 0.0, 2024-02-26 18:55:53.528
22.0, 187500.0, 187500.0, 187500.0, 187500.0, 187500.0, 187500.0, 9604.008150578518, -181274.92741047472, 0.062, 0.008, 0.98, 192.0, 0.0, 0.0, 0.0, 0.0, 0.0, 0.0, 0.0, 0.0, 0.0, 1.708991753532466E9, 0.0, 2024-02-26 18:55:53.532
23.0, 187500.0, 187500.0, 187500.0, 187500.0, 187500.0, 187500.0, 10064.632900313485, -181326.76110586658, 0.062, 0.008, 0.98, 192.0, 0.0, 0.0, 0.0, 0.0, 0.0, 0.0, 0.0, 0.0, 0.0, 1.70899175353634E9, 0.0, 2024-02-26 18:55:53.536
24.0, 187500.0, 187500.0, 187500.0, 187500.0, 187500.0, 187500.0, 10519.289734278886, -181438.76569733213, 0.062, 0.008, 0.98, 192.0, 0.0, 0.0, 0.0, 0.0, 0.0, 0.0, 0.0, 0.0, 0.0, 1.708991753541342E9, 0.0, 2024-02-26 18:55:53.541
25.0, 187500.0, 187500.0, 187500.0, 187500.0, 187500.0, 187500.0, 9850.57024366501, -181336.1935420267, 0.062, 0.008, 0.98, 192.0, 0.0, 0.0, 0.0, 0.0, 0.0, 0.0, 0.0, 0.0, 0.0, 1.708991753545347E9, 0.0, 2024-02-26 18:55:53.545
26.0, 187500.0, 187500.0, 187500.0, 187500.0, 187500.0, 187500.0, 9437.331192175292, -181278.61544830984, 0.062, 0.008, 0.98, 192.0, 0.0, 0.0, 0.0, 0.0, 0.0, 0.0, 0.0, 0.0, 0.0, 1.708991753549347E9, 0.0, 2024-02-26 18:55:53.549
27.0, 187500.0, 187500.0, 187500.0, 187500.0, 187500.0, 187500.0, 9633.892432915263, -181315.02644002755, 0.062, 0.008, 0.98, 192.0, 0.0, 0.0, 0.0, 0.0, 0.0, 0.0, 0.0, 0.0, 0.0, 1.708991753553359E9, 0.0, 2024-02-26 18:55:53.553
28.0, 187500.0, 187500.0, 187500.0, 187500.0, 187500.0, 187500.0, 10180.72786101435, -181456.96001731875, 0.064, 0.01, 0.98, 192.0, 2.0, 0.0, 0.0, 80.0, 30.0, 160.0, 0.0, 0.0, 0.0, 1.708991753556389E9, 0.0, 2024-02-26 18:55:53.556
29.0, 187500.0, 187500.0, 187500.0, 187500.0, 187500.0, 187500.0, 9664.402564096757, -181380.11471988139, 0.064, 0.01, 0.98, 192.0, 0.0, 0.0, 0.0, 0.0, 0.0, 0.0, 0.0, 0.0, 0.0, 1.708991753560374E9, 0.0, 2024-02-26 18:55:53.560
30.0, 187500.0, 187500.0, 187500.0, 187500.0, 187500.0, 187500.0, 9127.75953146929, -181285.36567513534, 0.064, 0.01, 0.98, 192.0, 0.0, 0.0, 0.0, 0.0, 0.0, 0.0, 0.0, 0.0, 0.0, 1.708991753564371E9, 0.0, 2024-02-26 18:55:53.564
31.0, 187500.0, 187500.0, 187500.0, 187500.0, 187500.0, 187500.0, 9185.00234901933, -181294.93222176222, 0.064, 0.01, 0.98, 192.0, 0.0, 0.0, 0.0, 0.0, 0.0, 0.0, 0.0, 0.0, 0.0, 1.708991753568384E9, 0.0, 2024-02-26 18:55:53.568
32.0, 187500.0, 187500.0, 187500.0, 187500.0, 187500.0, 187500.0, 9768.226417091659, -181425.3322989145, 0.064, 0.01, 0.98, 192.0, 0.0, 0.0, 0.0, 0.0, 0.0, 0.0, 0.0, 0.0, 0.0, 1.708991753573561E9, 0.0, 2024-02-26 18:55:53.573
33.0, 187500.0, 187500.0, 187500.0, 187500.0, 187500.0, 187500.0, 9525.620582773756, -181385.0097519171, 0.064, 0.01, 0.98, 192.0, 0.0, 0.0, 0.0, 0.0, 0.0, 0.0, 0.0, 0.0, 0.0, 1.708991753577381E9, 0.0, 2024-02-26 18:55:53.577
34.0, 187500.0, 187500.0, 187500.0, 187500.0, 187500.0, 187500.0, 9148.591357301637, -181290.61833508234, 0.064, 0.01, 0.98, 192.0, 0.0, 0.0, 0.0, 0.0, 0.0, 0.0, 0.0, 0.0, 0.0, 1.708991753581382E9, 0.0, 2024-02-26 18:55:53.581
35.0, 187500.0, 187500.0, 187500.0, 187500.0, 187500.0, 187500.0, 9333.954374069497, -181285.1421576908, 0.064, 0.01, 0.98, 192.0, 0.0, 0.0, 0.0, 0.0, 0.0, 0.0, 0.0, 0.0, 0.0, 1.708991753584375E9, 0.0, 2024-02-26 18:55:53.584
36.0, 187500.0, 187500.0, 187500.0, 187500.0, 187500.0, 187500.0, 10029.428902796377, -181419.54319710055, 0.064, 0.01, 0.98, 192.0, 0.0, 0.0, 0.0, 0.0, 0.0, 0.0, 0.0, 0.0, 0.0, 1.708991753590397E9, 0.0, 2024-02-26 18:55:53.590
37.0, 187500.0, 187500.0, 187500.0, 187500.0, 187500.0, 187500.0, 9959.892625795917, -181423.8794355249, 0.064, 0.01, 0.98, 192.0, 0.0, 0.0, 0.0, 0.0, 0.0, 0.0, 0.0, 0.0, 0.0, 1.708991753593383E9, 0.0, 2024-02-26 18:55:53.593
38.0, 187500.0, 187500.0, 187500.0, 187500.0, 187500.0, 187500.0, 9379.417822291593, -181308.3432684354, 0.06, 0.012, 0.984, 192.0, 1.0, 224.0, 0.0, 96.0, 30.0, 192.0, 0.0, 0.0, 0.0, 1.708991753596419E9, 0.0, 2024-02-26 18:55:53.596
39.0, 187500.0, 187500.0, 187500.0, 187500.0, 187500.0, 187500.0, 9379.127249613673, -181283.33166638992, 0.06, 0.012, 0.984, 192.0, 0.0, 0.0, 0.0, 0.0, 0.0, 0.0, 0.0, 0.0, 0.0, 1.708991753601426E9, 0.0, 2024-02-26 18:55:53.601
40.0, 187500.0, 187500.0, 187500.0, 187500.0, 187500.0, 187500.0, 9952.605957103486, -181380.62881000387, 0.06, 0.012, 0.984, 192.0, 0.0, 0.0, 0.0, 0.0, 0.0, 0.0, 0.0, 0.0, 0.0, 1.708991753605437E9, 0.0, 2024-02-26 18:55:53.605
41.0, 187500.0, 187500.0, 187500.0, 187500.0, 187500.0, 187500.0, 10143.109875096068, -181425.30994717003, 0.06, 0.012, 0.984, 192.0, 0.0, 0.0, 0.0, 0.0, 0.0, 0.0, 0.0, 0.0, 0.0, 1.708991753609427E9, 0.0, 2024-02-26 18:55:53.609
42.0, 187500.0, 187500.0, 187500.0, 187500.0, 187500.0, 187500.0, 9641.71554347462, -181307.04686725698, 0.06, 0.012, 0.984, 192.0, 0.0, 0.0, 0.0, 0.0, 0.0, 0.0, 0.0, 0.0, 0.0, 1.708991753612427E9, 0.0, 2024-02-26 18:55:53.612
43.0, 187500.0, 187500.0, 187500.0, 187500.0, 187500.0, 187500.0, 9691.269360932036, -181273.45219534068, 0.06, 0.012, 0.984, 192.0, 0.0, 0.0, 0.0, 0.0, 0.0, 0.0, 0.0, 0.0, 0.0, 1.708991753616427E9, 0.0, 2024-02-26 18:55:53.616
44.0, 187500.0, 187500.0, 187500.0, 187500.0, 187500.0, 187500.0, 10248.118370547101, -181335.38887922632, 0.06, 0.012, 0.984, 192.0, 0.0, 0.0, 0.0, 0.0, 0.0, 0.0, 0.0, 0.0, 0.0, 1.708991753620426E9, 0.0, 2024-02-26 18:55:53.620
45.0, 187500.0, 187500.0, 187500.0, 187500.0, 187500.0, 187500.0, 10590.211819435575, -181430.36144141693, 0.06, 0.012, 0.984, 192.0, 0.0, 0.0, 0.0, 0.0, 0.0, 0.0, 0.0, 0.0, 0.0, 1.708991753625428E9, 0.0, 2024-02-26 18:55:53.625
46.0, 187500.0, 187500.0, 187500.0, 187500.0, 187500.0, 187500.0, 9909.422386815833, -181326.02349829956, 0.06, 0.012, 0.984, 192.0, 0.0, 0.0, 0.0, 0.0, 0.0, 0.0, 0.0, 0.0, 0.0, 1.708991753629428E9, 0.0, 2024-02-26 18:55:53.629
47.0, 187500.0, 187500.0, 187500.0, 187500.0, 187500.0, 187500.0, 9669.58816881039, -181271.2393726396, 0.06, 0.012, 0.984, 192.0, 0.0, 0.0, 0.0, 0.0, 0.0, 0.0, 0.0, 0.0, 0.0, 1.708991753633428E9, 0.0, 2024-02-26 18:55:53.633
48.0, 187500.0, 187500.0, 187500.0, 187500.0, 187500.0, 187500.0, 10074.624130085007, -181320.21204474117, 0.056, 0.014, 0.98, 192.0, 1.0, 192.0, 0.0, 112.0, 30.0, 160.0, 0.0, 0.0, 0.0, 1.708991753637449E9, 0.0, 2024-02-26 18:55:53.637
49.0, 187500.0, 187500.0, 187500.0, 187500.0, 187500.0, 187500.0, 10636.167006035686, -181430.51790362812, 0.056, 0.014, 0.98, 192.0, 0.0, 0.0, 0.0, 0.0, 0.0, 0.0, 0.0, 0.0, 0.0, 1.708991753640438E9, 0.0, 2024-02-26 18:55:53.640
50.0, 187500.0, 187500.0, 187500.0, 187500.0, 187500.0, 187500.0, 10163.360555572577, -181343.48021071914, 0.056, 0.014, 0.98, 192.0, 0.0, 0.0, 0.0, 0.0, 0.0, 0.0, 0.0, 0.0, 0.0, 1.708991753645478E9, 0.0, 2024-02-26 18:55:53.645
51.0, 187500.0, 187500.0, 187500.0, 187500.0, 187500.0, 187500.0, 9898.335921566, -181295.75923630706, 0.056, 0.014, 0.98, 192.0, 0.0, 0.0, 0.0, 0.0, 0.0, 0.0, 0.0, 0.0, 0.0, 1.708991753649493E9, 0.0, 2024-02-26 18:55:53.649
52.0, 187500.0, 187500.0, 187500.0, 187500.0, 187500.0, 187500.0, 10242.59748966664, -181312.63480337083, 0.056, 0.014, 0.98, 192.0, 0.0, 0.0, 0.0, 0.0, 0.0, 0.0, 0.0, 0.0, 0.0, 1.708991753652492E9, 0.0, 2024-02-26 18:55:53.652
53.0, 187500.0, 187500.0, 187500.0, 187500.0, 187500.0, 187500.0, 10874.995395540644, -181442.72195610072, 0.056, 0.014, 0.98, 192.0, 0.0, 0.0, 0.0, 0.0, 0.0, 0.0, 0.0, 0.0, 0.0, 1.708991753657482E9, 0.0, 2024-02-26 18:55:53.657
54.0, 187500.0, 187500.0, 187500.0, 187500.0, 187500.0, 187500.0, 10444.187872909055, -181369.83291743195, 0.056, 0.014, 0.98, 192.0, 0.0, 0.0, 0.0, 0.0, 0.0, 0.0, 0.0, 0.0, 0.0, 1.708991753661477E9, 0.0, 2024-02-26 18:55:53.661
55.0, 187500.0, 187500.0, 187500.0, 187500.0, 187500.0, 187500.0, 10024.17624284938, -181279.82244251043, 0.056, 0.014, 0.98, 192.0, 0.0, 0.0, 0.0, 0.0, 0.0, 0.0, 0.0, 0.0, 0.0, 1.708991753664469E9, 0.0, 2024-02-26 18:55:53.664
56.0, 187500.0, 187500.0, 187500.0, 187500.0, 187500.0, 187500.0, 10195.927047243958, -181280.9400297332, 0.056, 0.014, 0.98, 192.0, 0.0, 0.0, 0.0, 0.0, 0.0, 0.0, 0.0, 0.0, 0.0, 1.708991753668485E9, 0.0, 2024-02-26 18:55:53.668
57.0, 187500.0, 187500.0, 187500.0, 187500.0, 187500.0, 187500.0, 10800.139403359819, -181409.5743190735, 0.056, 0.014, 0.98, 192.0, 0.0, 0.0, 0.0, 0.0, 0.0, 0.0, 0.0, 0.0, 0.0, 1.708991753673481E9, 0.0, 2024-02-26 18:55:53.673
58.0, 187500.0, 187500.0, 187500.0, 187500.0, 187500.0, 187500.0, 10516.160490055143, -181379.62298150337, 0.056, 0.014, 0.976, 192.0, 1.0, 192.0, 0.0, 112.0, 30.0, 128.0, 0.0, 0.0, 0.0, 1.70899175367848E9, 0.0, 2024-02-26 18:55:53.678
59.0, 187500.0, 187500.0, 187500.0, 187500.0, 187500.0, 187500.0, 10000.706911171308, -181286.036227469, 0.056, 0.014, 0.976, 192.0, 0.0, 0.0, 0.0, 0.0, 0.0, 0.0, 0.0, 0.0, 0.0, 1.70899175368154E9, 0.0, 2024-02-26 18:55:53.681
60.0, 187500.0, 187500.0, 187500.0, 187500.0, 187500.0, 187500.0, 10128.871813878039, -181271.06055868394, 0.056, 0.014, 0.976, 192.0, 0.0, 0.0, 0.0, 0.0, 0.0, 0.0, 0.0, 0.0, 0.0, 1.708991753684524E9, 0.0, 2024-02-26 18:55:53.684
61.0, 187500.0, 187500.0, 187500.0, 187500.0, 187500.0, 187500.0, 10790.885781155323, -181383.86981294988, 0.056, 0.014, 0.976, 192.0, 0.0, 0.0, 0.0, 0.0, 0.0, 0.0, 0.0, 0.0, 0.0, 1.708991753690524E9, 0.0, 2024-02-26 18:55:53.690
62.0, 187500.0, 187500.0, 187500.0, 187500.0, 187500.0, 187500.0, 10741.309611953451, -181384.2050891167, 0.056, 0.014, 0.976, 192.0, 0.0, 0.0, 0.0, 0.0, 0.0, 0.0, 0.0, 0.0, 0.0, 1.708991753694486E9, 0.0, 2024-02-26 18:55:53.694
63.0, 187500.0, 187500.0, 187500.0, 187500.0, 187500.0, 187500.0, 10092.080842504602, -181281.1411954333, 0.056, 0.014, 0.976, 192.0, 0.0, 0.0, 0.0, 0.0, 0.0, 0.0, 0.0, 0.0, 0.0, 1.708991753697532E9, 0.0, 2024-02-26 18:55:53.697
64.0, 187500.0, 187500.0, 187500.0, 187500.0, 187500.0, 187500.0, 10020.421149780888, -181263.39391033578, 0.056, 0.014, 0.976, 192.0, 0.0, 0.0, 0.0, 0.0, 0.0, 0.0, 0.0, 0.0, 0.0, 1.708991753700529E9, 0.0, 2024-02-26 18:55:53.700
65.0, 187500.0, 187500.0, 187500.0, 187500.0, 187500.0, 187500.0, 10582.589874576315, -181352.9126468793, 0.056, 0.014, 0.976, 192.0, 0.0, 0.0, 0.0, 0.0, 0.0, 0.0, 0.0, 0.0, 0.0, 1.708991753704525E9, 0.0, 2024-02-26 18:55:53.704
66.0, 187500.0, 187500.0, 187500.0, 187500.0, 187500.0, 187500.0, 10805.727339473646, -181408.94847022873, 0.056, 0.014, 0.976, 192.0, 0.0, 0.0, 0.0, 0.0, 0.0, 0.0, 0.0, 0.0, 0.0, 1.70899175370853E9, 0.0, 2024-02-26 18:55:53.708
67.0, 187500.0, 187500.0, 187500.0, 187500.0, 187500.0, 187500.0, 10190.964959974881, -181309.37144868035, 0.056, 0.014, 0.976, 192.0, 0.0, 0.0, 0.0, 0.0, 0.0, 0.0, 0.0, 0.0, 0.0, 1.708991753712527E9, 0.0, 2024-02-26 18:55:53.712
68.0, 187500.0, 187500.0, 187500.0, 187500.0, 187500.0, 187500.0, 10060.52017933371, -181286.5503175915, 0.058, 0.008, 0.976, 192.0, 1.0, 208.0, 0.0, 64.0, 30.0, 128.0, 0.0, 0.0, 0.0, 1.70899175371754E9, 0.0, 2024-02-26 18:55:53.717
69.0, 187500.0, 187500.0, 187500.0, 187500.0, 187500.0, 187500.0, 10439.985744951457, -181355.4160422583, 0.058, 0.008, 0.976, 192.0, 0.0, 0.0, 0.0, 0.0, 0.0, 0.0, 0.0, 0.0, 0.0, 1.708991753720523E9, 0.0, 2024-02-26 18:55:53.720
70.0, 187500.0, 187500.0, 187500.0, 187500.0, 187500.0, 187500.0, 10654.942471378145, -181440.57618863301, 0.058, 0.008, 0.976, 192.0, 0.0, 0.0, 0.0, 0.0, 0.0, 0.0, 0.0, 0.0, 0.0, 1.708991753724532E9, 0.0, 2024-02-26 18:55:53.724
71.0, 187500.0, 187500.0, 187500.0, 187500.0, 187500.0, 187500.0, 9941.519491853654, -181320.32380346346, 0.058, 0.008, 0.976, 192.0, 0.0, 0.0, 0.0, 0.0, 0.0, 0.0, 0.0, 0.0, 0.0, 1.708991753728564E9, 0.0, 2024-02-26 18:55:53.728
72.0, 187500.0, 187500.0, 187500.0, 187500.0, 187500.0, 187500.0, 9677.701852047665, -181252.88859044178, 0.058, 0.008, 0.976, 192.0, 0.0, 0.0, 0.0, 0.0, 0.0, 0.0, 0.0, 0.0, 0.0, 1.708991753732573E9, 0.0, 2024-02-26 18:55:53.732
73.0, 187500.0, 187500.0, 187500.0, 187500.0, 187500.0, 187500.0, 10094.897162305972, -181309.88553880283, 0.058, 0.008, 0.976, 192.0, 0.0, 0.0, 0.0, 0.0, 0.0, 0.0, 0.0, 0.0, 0.0, 1.708991753736575E9, 0.0, 2024-02-26 18:55:53.736
74.0, 187500.0, 187500.0, 187500.0, 187500.0, 187500.0, 187500.0, 10649.086314330854, -181435.323528686, 0.058, 0.008, 0.976, 192.0, 0.0, 0.0, 0.0, 0.0, 0.0, 0.0, 0.0, 0.0, 0.0, 1.708991753740569E9, 0.0, 2024-02-26 18:55:53.740
75.0, 187500.0, 187500.0, 187500.0, 187500.0, 187500.0, 187500.0, 10092.170249482424, -181343.4131554858, 0.058, 0.008, 0.976, 192.0, 0.0, 0.0, 0.0, 0.0, 0.0, 0.0, 0.0, 0.0, 0.0, 1.708991753745563E9, 0.0, 2024-02-26 18:55:53.745
76.0, 187500.0, 187500.0, 187500.0, 187500.0, 187500.0, 187500.0, 9670.549293821967, -181258.3871195778, 0.058, 0.008, 0.976, 192.0, 0.0, 0.0, 0.0, 0.0, 0.0, 0.0, 0.0, 0.0, 0.0, 1.708991753748582E9, 0.0, 2024-02-26 18:55:53.748
77.0, 187500.0, 187500.0, 187500.0, 187500.0, 187500.0, 187500.0, 9818.18256594927, -181281.56587857794, 0.058, 0.008, 0.976, 192.0, 0.0, 0.0, 0.0, 0.0, 0.0, 0.0, 0.0, 0.0, 0.0, 1.708991753752591E9, 0.0, 2024-02-26 18:55:53.752
78.0, 187500.0, 187500.0, 187500.0, 187500.0, 187500.0, 187500.0, 10349.23766246291, -181416.50335985463, 0.06, 0.008, 0.976, 192.0, 1.0, 224.0, 0.0, 64.0, 30.0, 128.0, 0.0, 0.0, 0.0, 1.708991753756557E9, 0.0, 2024-02-26 18:55:53.756
79.0, 187500.0, 187500.0, 187500.0, 187500.0, 187500.0, 187500.0, 9912.417520572844, -181355.72896668065, 0.06, 0.008, 0.976, 192.0, 0.0, 0.0, 0.0, 0.0, 0.0, 0.0, 0.0, 0.0, 0.0, 1.708991753760558E9, 0.0, 2024-02-26 18:55:53.760
80.0, 187500.0, 187500.0, 187500.0, 187500.0, 187500.0, 187500.0, 9413.973619219496, -181267.66309352673, 0.06, 0.008, 0.976, 192.0, 0.0, 0.0, 0.0, 0.0, 0.0, 0.0, 0.0, 0.0, 0.0, 1.708991753764601E9, 0.0, 2024-02-26 18:55:53.764
81.0, 187500.0, 187500.0, 187500.0, 187500.0, 187500.0, 187500.0, 9469.718869891032, -181271.5299453175, 0.06, 0.008, 0.976, 192.0, 0.0, 0.0, 0.0, 0.0, 0.0, 0.0, 0.0, 0.0, 0.0, 1.708991753768599E9, 0.0, 2024-02-26 18:55:53.768
82.0, 187500.0, 187500.0, 187500.0, 187500.0, 187500.0, 187500.0, 9992.50382095621, -181391.87173746488, 0.06, 0.008, 0.976, 192.0, 0.0, 0.0, 0.0, 0.0, 0.0, 0.0, 0.0, 0.0, 0.0, 1.708991753773602E9, 0.0, 2024-02-26 18:55:53.773
83.0, 187500.0, 187500.0, 187500.0, 187500.0, 187500.0, 187500.0, 9715.990390299607, -181373.92328666727, 0.06, 0.008, 0.976, 192.0, 0.0, 0.0, 0.0, 0.0, 0.0, 0.0, 0.0, 0.0, 0.0, 1.708991753776594E9, 0.0, 2024-02-26 18:55:53.776
84.0, 187500.0, 187500.0, 187500.0, 187500.0, 187500.0, 187500.0, 9156.570930072181, -181275.10622443038, 0.06, 0.008, 0.976, 192.0, 0.0, 0.0, 0.0, 0.0, 0.0, 0.0, 0.0, 0.0, 0.0, 1.708991753780598E9, 0.0, 2024-02-26 18:55:53.780
85.0, 187500.0, 187500.0, 187500.0, 187500.0, 187500.0, 187500.0, 9231.002239108353, -181255.01200616505, 0.06, 0.008, 0.976, 192.0, 0.0, 0.0, 0.0, 0.0, 0.0, 0.0, 0.0, 0.0, 0.0, 1.708991753784595E9, 0.0, 2024-02-26 18:55:53.784
86.0, 187500.0, 187500.0, 187500.0, 187500.0, 187500.0, 187500.0, 9845.004659295639, -181353.1585160683, 0.06, 0.008, 0.976, 192.0, 0.0, 0.0, 0.0, 0.0, 0.0, 0.0, 0.0, 0.0, 0.0, 1.708991753788596E9, 0.0, 2024-02-26 18:55:53.788
87.0, 187500.0, 187500.0, 187500.0, 187500.0, 187500.0, 187500.0, 9889.439927272788, -181389.6589147638, 0.06, 0.008, 0.976, 192.0, 0.0, 0.0, 0.0, 0.0, 0.0, 0.0, 0.0, 0.0, 0.0, 1.708991753792595E9, 0.0, 2024-02-26 18:55:53.792
88.0, 187500.0, 187500.0, 187500.0, 187500.0, 187500.0, 187500.0, 9252.057582385252, -181296.31802991845, 0.05, 0.006, 0.978, 192.0, 1.0, 144.0, 0.0, 48.0, 30.0, 144.0, 0.0, 0.0, 0.0, 1.708991753796593E9, 0.0, 2024-02-26 18:55:53.796
89.0, 187500.0, 187500.0, 187500.0, 187500.0, 187500.0, 187500.0, 9232.812730409232, -181264.10916615836, 0.05, 0.006, 0.978, 192.0, 0.0, 0.0, 0.0, 0.0, 0.0, 0.0, 0.0, 0.0, 0.0, 1.708991753800599E9, 0.0, 2024-02-26 18:55:53.800
90.0, 187500.0, 187500.0, 187500.0, 187500.0, 187500.0, 187500.0, 9885.058985359548, -181352.42090850126, 0.05, 0.006, 0.978, 192.0, 0.0, 0.0, 0.0, 0.0, 0.0, 0.0, 0.0, 0.0, 0.0, 1.708991753803617E9, 0.0, 2024-02-26 18:55:53.803
91.0, 187500.0, 187500.0, 187500.0, 187500.0, 187500.0, 187500.0, 10217.943515532437, -181413.2623569086, 0.05, 0.006, 0.978, 192.0, 0.0, 0.0, 0.0, 0.0, 0.0, 0.0, 0.0, 0.0, 0.0, 1.708991753808706E9, 0.0, 2024-02-26 18:55:53.808
92.0, 187500.0, 187500.0, 187500.0, 187500.0, 187500.0, 187500.0, 9641.67083998571, -181284.2927914015, 0.05, 0.006, 0.978, 192.0, 0.0, 0.0, 0.0, 0.0, 0.0, 0.0, 0.0, 0.0, 0.0, 1.708991753812703E9, 0.0, 2024-02-26 18:55:53.812
93.0, 187500.0, 187500.0, 187500.0, 187500.0, 187500.0, 187500.0, 9499.849021416787, -181254.3191020869, 0.05, 0.006, 0.978, 192.0, 0.0, 0.0, 0.0, 0.0, 0.0, 0.0, 0.0, 0.0, 0.0, 1.708991753816701E9, 0.0, 2024-02-26 18:55:53.816
94.0, 187500.0, 187500.0, 187500.0, 187500.0, 187500.0, 187500.0, 9952.024811747648, -181306.30925968997, 0.05, 0.006, 0.978, 192.0, 0.0, 0.0, 0.0, 0.0, 0.0, 0.0, 0.0, 0.0, 0.0, 1.708991753822705E9, 0.0, 2024-02-26 18:55:53.822
95.0, 187500.0, 187500.0, 187500.0, 187500.0, 187500.0, 187500.0, 10456.436628870562, -181403.62875504838, 0.05, 0.006, 0.978, 192.0, 0.0, 0.0, 0.0, 0.0, 0.0, 0.0, 0.0, 0.0, 0.0, 1.708991753825719E9, 0.0, 2024-02-26 18:55:53.825
96.0, 187500.0, 187500.0, 187500.0, 187500.0, 187500.0, 187500.0, 9989.084004054548, -181307.85153005738, 0.05, 0.006, 0.978, 192.0, 0.0, 0.0, 0.0, 0.0, 0.0, 0.0, 0.0, 0.0, 0.0, 1.708991753828726E9, 0.0, 2024-02-26 18:55:53.828
97.0, 187500.0, 187500.0, 187500.0, 187500.0, 187500.0, 187500.0, 9852.447790199256, -181260.15290738977, 0.05, 0.006, 0.978, 192.0, 0.0, 0.0, 0.0, 0.0, 0.0, 0.0, 0.0, 0.0, 0.0, 1.708991753831713E9, 0.0, 2024-02-26 18:55:53.831
98.0, 187500.0, 187500.0, 187500.0, 187500.0, 187500.0, 187500.0, 10218.479957399364, -181277.36375062034, 0.052000000000000005, 0.01, 0.978, 192.0, 1.0, 160.0, 0.0, 80.0, 30.0, 144.0, 0.0, 0.0, 0.0, 1.708991753836729E9, 0.0, 2024-02-26 18:55:53.836
99.0, 187500.0, 187500.0, 187500.0, 187500.0, 187500.0, 187500.0, 10747.054010278465, -181395.13509215537, 0.052000000000000005, 0.01, 0.978, 192.0, 0.0, 0.0, 0.0, 0.0, 0.0, 0.0, 0.0, 0.0, 0.0, 1.708991753841715E9, 0.0, 2024-02-26 18:55:53.841
100.0, 187500.0, 187500.0, 187500.0, 187500.0, 187500.0, 187500.0, 10219.776358577772, -181322.6483848868, 0.052000000000000005, 0.01, 0.978, 192.0, 0.0, 0.0, 0.0, 0.0, 0.0, 0.0, 0.0, 0.0, 0.0, 1.708991753844709E9, 0.0, 2024-02-26 18:55:53.844
101.0, 187500.0, 187500.0, 187500.0, 187500.0, 187500.0, 187500.0, 9839.081447014982, -181262.00810217956, 0.052000000000000005, 0.01, 0.978, 192.0, 0.0, 0.0, 0.0, 0.0, 0.0, 0.0, 0.0, 0.0, 0.0, 1.708991753850719E9, 0.0, 2024-02-26 18:55:53.850
102.0, 187500.0, 187500.0, 187500.0, 187500.0, 187500.0, 187500.0, 10018.185975335356, -181254.40850906476, 0.052000000000000005, 0.01, 0.978, 192.0, 0.0, 0.0, 0.0, 0.0, 0.0, 0.0, 0.0, 0.0, 0.0, 1.708991753854705E9, 0.0, 2024-02-26 18:55:53.854
103.0, 187500.0, 187500.0, 187500.0, 187500.0, 187500.0, 187500.0, 10539.495711266483, -181386.6637810068, 0.052000000000000005, 0.01, 0.978, 192.0, 0.0, 0.0, 0.0, 0.0, 0.0, 0.0, 0.0, 0.0, 0.0, 1.708991753857704E9, 0.0, 2024-02-26 18:55:53.857
104.0, 187500.0, 187500.0, 187500.0, 187500.0, 187500.0, 187500.0, 10073.126563206502, -181350.14103056683, 0.052000000000000005, 0.01, 0.978, 192.0, 0.0, 0.0, 0.0, 0.0, 0.0, 0.0, 0.0, 0.0, 0.0, 1.708991753860706E9, 0.0, 2024-02-26 18:55:53.860
105.0, 187500.0, 187500.0, 187500.0, 187500.0, 187500.0, 187500.0, 9438.918166031619, -181268.3336458604, 0.052000000000000005, 0.01, 0.978, 192.0, 0.0, 0.0, 0.0, 0.0, 0.0, 0.0, 0.0, 0.0, 0.0, 1.708991753864708E9, 0.0, 2024-02-26 18:55:53.864
106.0, 187500.0, 187500.0, 187500.0, 187500.0, 187500.0, 187500.0, 9374.835714678255, -181281.1858989222, 0.052000000000000005, 0.01, 0.978, 192.0, 0.0, 0.0, 0.0, 0.0, 0.0, 0.0, 0.0, 0.0, 0.0, 1.708991753868705E9, 0.0, 2024-02-26 18:55:53.868
107.0, 187500.0, 187500.0, 187500.0, 187500.0, 187500.0, 187500.0, 9801.75403377462, -181421.4207436348, 0.052000000000000005, 0.008, 0.982, 192.0, 1.0, 160.0, 0.0, 64.0, 30.0, 176.0, 0.0, 0.0, 0.0, 1.708991753872702E9, 0.0, 2024-02-26 18:55:53.872
108.0, 187500.0, 187500.0, 187500.0, 187500.0, 187500.0, 187500.0, 9494.104623091773, -181415.3634208874, 0.052000000000000005, 0.008, 0.982, 192.0, 0.0, 0.0, 0.0, 0.0, 0.0, 0.0, 0.0, 0.0, 0.0, 1.708991753876736E9, 0.0, 2024-02-26 18:55:53.876
109.0, 187500.0, 187500.0, 187500.0, 187500.0, 187500.0, 187500.0, 8851.469618257239, -181271.17231740622, 0.052000000000000005, 0.008, 0.982, 192.0, 0.0, 0.0, 0.0, 0.0, 0.0, 0.0, 0.0, 0.0, 0.0, 1.708991753880724E9, 0.0, 2024-02-26 18:55:53.880
110.0, 187500.0, 187500.0, 187500.0, 187500.0, 187500.0, 187500.0, 8829.721370902225, -181246.76421246104, 0.052000000000000005, 0.008, 0.982, 192.0, 0.0, 0.0, 0.0, 0.0, 0.0, 0.0, 0.0, 0.0, 0.0, 1.708991753884727E9, 0.0, 2024-02-26 18:55:53.884
111.0, 187500.0, 187500.0, 187500.0, 187500.0, 187500.0, 187500.0, 9328.008810044386, -181356.80185041451, 0.052000000000000005, 0.008, 0.982, 192.0, 0.0, 0.0, 0.0, 0.0, 0.0, 0.0, 0.0, 0.0, 0.0, 1.708991753887707E9, 0.0, 2024-02-26 18:55:53.887
112.0, 187500.0, 187500.0, 187500.0, 187500.0, 187500.0, 187500.0, 9309.79213831331, -181391.3129438535, 0.052000000000000005, 0.008, 0.982, 192.0, 0.0, 0.0, 0.0, 0.0, 0.0, 0.0, 0.0, 0.0, 0.0, 1.708991753891718E9, 0.0, 2024-02-26 18:55:53.891
113.0, 187500.0, 187500.0, 187500.0, 187500.0, 187500.0, 187500.0, 8623.32536260192, -181270.90409647278, 0.052000000000000005, 0.008, 0.982, 192.0, 0.0, 0.0, 0.0, 0.0, 0.0, 0.0, 0.0, 0.0, 0.0, 1.708991753896729E9, 0.0, 2024-02-26 18:55:53.896
114.0, 187500.0, 187500.0, 187500.0, 187500.0, 187500.0, 187500.0, 8528.755131811517, -181246.92067467223, 0.052000000000000005, 0.008, 0.982, 192.0, 0.0, 0.0, 0.0, 0.0, 0.0, 0.0, 0.0, 0.0, 0.0, 1.708991753900738E9, 0.0, 2024-02-26 18:55:53.900
115.0, 187500.0, 187500.0, 187500.0, 187500.0, 187500.0, 187500.0, 9033.278707656707, -181338.51812345008, 0.052000000000000005, 0.008, 0.982, 192.0, 0.0, 0.0, 0.0, 0.0, 0.0, 0.0, 0.0, 0.0, 0.0, 1.708991753904707E9, 0.0, 2024-02-26 18:55:53.904
116.0, 187500.0, 187500.0, 187500.0, 187500.0, 187500.0, 187500.0, 9321.616211130167, -181442.78901133407, 0.052000000000000005, 0.008, 0.982, 192.0, 0.0, 0.0, 0.0, 0.0, 0.0, 0.0, 0.0, 0.0, 0.0, 1.708991753908747E9, 0.0, 2024-02-26 18:55:53.908
117.0, 187500.0, 187500.0, 187500.0, 187500.0, 187500.0, 187500.0, 8618.765606733037, -181316.3898964393, 0.048, 0.008, 0.988, 192.0, 1.0, 128.0, 0.0, 64.0, 30.0, 224.0, 0.0, 0.0, 0.0, 1.708991753912783E9, 0.0, 2024-02-26 18:55:53.912
118.0, 187500.0, 187500.0, 187500.0, 187500.0, 187500.0, 187500.0, 8435.749523132983, -181250.09462238487, 0.048, 0.008, 0.988, 192.0, 0.0, 0.0, 0.0, 0.0, 0.0, 0.0, 0.0, 0.0, 0.0, 1.70899175391574E9, 0.0, 2024-02-26 18:55:53.915
119.0, 187500.0, 187500.0, 187500.0, 187500.0, 187500.0, 187500.0, 8883.209095383776, -181306.21985271215, 0.048, 0.008, 0.988, 192.0, 0.0, 0.0, 0.0, 0.0, 0.0, 0.0, 0.0, 0.0, 0.0, 1.708991753919724E9, 0.0, 2024-02-26 18:55:53.919
120.0, 187500.0, 187500.0, 187500.0, 187500.0, 187500.0, 187500.0, 9387.732671228967, -181415.4304761208, 0.048, 0.008, 0.988, 192.0, 0.0, 0.0, 0.0, 0.0, 0.0, 0.0, 0.0, 0.0, 0.0, 1.708991753924723E9, 0.0, 2024-02-26 18:55:53.924
121.0, 187500.0, 187500.0, 187500.0, 187500.0, 187500.0, 187500.0, 8906.499613106205, -181308.90206204678, 0.048, 0.008, 0.988, 192.0, 0.0, 0.0, 0.0, 0.0, 0.0, 0.0, 0.0, 0.0, 0.0, 1.708991753928724E9, 0.0, 2024-02-26 18:55:53.928
122.0, 187500.0, 187500.0, 187500.0, 187500.0, 187500.0, 187500.0, 8739.82265470298, -181242.8750089258, 0.048, 0.008, 0.988, 192.0, 0.0, 0.0, 0.0, 0.0, 0.0, 0.0, 0.0, 0.0, 0.0, 1.708991753932725E9, 0.0, 2024-02-26 18:55:53.932
123.0, 187500.0, 187500.0, 187500.0, 187500.0, 187500.0, 187500.0, 9141.975240942866, -181272.781643007, 0.048, 0.008, 0.988, 192.0, 0.0, 0.0, 0.0, 0.0, 0.0, 0.0, 0.0, 0.0, 0.0, 1.708991753935729E9, 0.0, 2024-02-26 18:55:53.935
124.0, 187500.0, 187500.0, 187500.0, 187500.0, 187500.0, 187500.0, 9752.468437250667, -181394.84451947745, 0.048, 0.008, 0.988, 192.0, 0.0, 0.0, 0.0, 0.0, 0.0, 0.0, 0.0, 0.0, 0.0, 1.708991753939767E9, 0.0, 2024-02-26 18:55:53.939
125.0, 187500.0, 187500.0, 187500.0, 187500.0, 187500.0, 187500.0, 9311.423815658549, -181328.32572797846, 0.048, 0.008, 0.988, 192.0, 0.0, 0.0, 0.0, 0.0, 0.0, 0.0, 0.0, 0.0, 0.0, 1.708991753943764E9, 0.0, 2024-02-26 18:55:53.943
126.0, 187500.0, 187500.0, 187500.0, 187500.0, 187500.0, 187500.0, 8894.452022844795, -181261.96339869066, 0.048, 0.008, 0.988, 192.0, 0.0, 0.0, 0.0, 0.0, 0.0, 0.0, 0.0, 0.0, 0.0, 1.708991753947767E9, 0.0, 2024-02-26 18:55:53.947
127.0, 187500.0, 187500.0, 187500.0, 187500.0, 187500.0, 187500.0, 9060.79370508119, -181259.95174168967, 0.054, 0.006, 0.986, 192.0, 1.0, 176.0, 0.0, 48.0, 30.0, 208.0, 0.0, 0.0, 0.0, 1.708991753952769E9, 0.0, 2024-02-26 18:55:53.952
128.0, 187500.0, 187500.0, 187500.0, 187500.0, 187500.0, 187500.0, 9684.96616899564, -181390.79885373104, 0.054, 0.006, 0.986, 192.0, 0.0, 0.0, 0.0, 0.0, 0.0, 0.0, 0.0, 0.0, 0.0, 1.708991753956778E9, 0.0, 2024-02-26 18:55:53.956
129.0, 187500.0, 187500.0, 187500.0, 187500.0, 187500.0, 187500.0, 9381.854162437221, -181361.54042023903, 0.054, 0.006, 0.986, 192.0, 0.0, 0.0, 0.0, 0.0, 0.0, 0.0, 0.0, 0.0, 0.0, 1.708991753960767E9, 0.0, 2024-02-26 18:55:53.960
130.0, 187500.0, 187500.0, 187500.0, 187500.0, 187500.0, 187500.0, 8820.624210908916, -181267.9760179491, 0.054, 0.006, 0.986, 192.0, 0.0, 0.0, 0.0, 0.0, 0.0, 0.0, 0.0, 0.0, 0.0, 1.708991753963763E9, 0.0, 2024-02-26 18:55:53.963
131.0, 187500.0, 187500.0, 187500.0, 187500.0, 187500.0, 187500.0, 8855.716449703748, -181264.042110925, 0.054, 0.006, 0.986, 192.0, 0.0, 0.0, 0.0, 0.0, 0.0, 0.0, 0.0, 0.0, 0.0, 1.708991753967767E9, 0.0, 2024-02-26 18:55:53.967
132.0, 187500.0, 187500.0, 187500.0, 187500.0, 187500.0, 187500.0, 9435.721866574511, -181376.60549600192, 0.054, 0.006, 0.986, 192.0, 0.0, 0.0, 0.0, 0.0, 0.0, 0.0, 0.0, 0.0, 0.0, 1.708991753971766E9, 0.0, 2024-02-26 18:55:53.971
133.0, 187500.0, 187500.0, 187500.0, 187500.0, 187500.0, 187500.0, 9361.84935114972, -181370.97285639917, 0.054, 0.006, 0.986, 192.0, 0.0, 0.0, 0.0, 0.0, 0.0, 0.0, 0.0, 0.0, 0.0, 1.708991753975766E9, 0.0, 2024-02-26 18:55:53.975
134.0, 187500.0, 187500.0, 187500.0, 187500.0, 187500.0, 187500.0, 8827.754417390159, -181268.1324801603, 0.054, 0.006, 0.986, 192.0, 0.0, 0.0, 0.0, 0.0, 0.0, 0.0, 0.0, 0.0, 0.0, 1.708991753980764E9, 0.0, 2024-02-26 18:55:53.980
135.0, 187500.0, 187500.0, 187500.0, 187500.0, 187500.0, 187500.0, 8777.462992365718, -181243.18793334818, 0.054, 0.006, 0.986, 192.0, 0.0, 0.0, 0.0, 0.0, 0.0, 0.0, 0.0, 0.0, 0.0, 1.708991753984823E9, 0.0, 2024-02-26 18:55:53.984
136.0, 187500.0, 187500.0, 187500.0, 187500.0, 187500.0, 187500.0, 9213.143195288563, -181340.73094615113, 0.054, 0.006, 0.986, 192.0, 0.0, 0.0, 0.0, 0.0, 0.0, 0.0, 0.0, 0.0, 0.0, 1.70899175398878E9, 0.0, 2024-02-26 18:55:53.988
137.0, 187500.0, 187500.0, 187500.0, 187500.0, 187500.0, 187500.0, 9203.286075983773, -181390.1059496529, 0.05, 0.002, 0.98, 192.0, 1.0, 144.0, 0.0, 16.0, 30.0, 160.0, 0.0, 0.0, 0.0, 1.708991753991817E9, 0.0, 2024-02-26 18:55:53.991
138.0, 187500.0, 187500.0, 187500.0, 187500.0, 187500.0, 187500.0, 8536.93587028216, -181270.90409647278, 0.05, 0.002, 0.98, 192.0, 0.0, 0.0, 0.0, 0.0, 0.0, 0.0, 0.0, 0.0, 0.0, 1.708991753995784E9, 0.0, 2024-02-26 18:55:53.995
139.0, 187500.0, 187500.0, 187500.0, 187500.0, 187500.0, 187500.0, 8462.90689264618, -181234.06842161043, 0.05, 0.002, 0.98, 192.0, 0.0, 0.0, 0.0, 0.0, 0.0, 0.0, 0.0, 0.0, 0.0, 1.708991753999806E9, 0.0, 2024-02-26 18:55:53.999
140.0, 187500.0, 187500.0, 187500.0, 187500.0, 187500.0, 187500.0, 8925.856223804501, -181321.4860941751, 0.05, 0.002, 0.98, 192.0, 0.0, 0.0, 0.0, 0.0, 0.0, 0.0, 0.0, 0.0, 0.0, 1.708991754005825E9, 0.0, 2024-02-26 18:55:54.005
141.0, 187500.0, 187500.0, 187500.0, 187500.0, 187500.0, 187500.0, 9112.649752217503, -181407.1156271834, 0.05, 0.002, 0.98, 192.0, 0.0, 0.0, 0.0, 0.0, 0.0, 0.0, 0.0, 0.0, 0.0, 1.708991754008808E9, 0.0, 2024-02-26 18:55:54.008
142.0, 187500.0, 187500.0, 187500.0, 187500.0, 187500.0, 187500.0, 8341.179292342578, -181281.45411985568, 0.05, 0.002, 0.98, 192.0, 0.0, 0.0, 0.0, 0.0, 0.0, 0.0, 0.0, 0.0, 0.0, 1.708991754013826E9, 0.0, 2024-02-26 18:55:54.013
143.0, 187500.0, 187500.0, 187500.0, 187500.0, 187500.0, 187500.0, 8060.441381983922, -181240.528075758, 0.05, 0.002, 0.98, 192.0, 0.0, 0.0, 0.0, 0.0, 0.0, 0.0, 0.0, 0.0, 0.0, 1.708991754017828E9, 0.0, 2024-02-26 18:55:54.017
144.0, 187500.0, 187500.0, 187500.0, 187500.0, 187500.0, 187500.0, 8380.89834223966, -181301.97302126564, 0.05, 0.002, 0.98, 192.0, 0.0, 0.0, 0.0, 0.0, 0.0, 0.0, 0.0, 0.0, 0.0, 1.708991754020819E9, 0.0, 2024-02-26 18:55:54.020
145.0, 187500.0, 187500.0, 187500.0, 187500.0, 187500.0, 187500.0, 8797.937190286779, -181419.1185139559, 0.05, 0.002, 0.98, 192.0, 0.0, 0.0, 0.0, 0.0, 0.0, 0.0, 0.0, 0.0, 0.0, 1.708991754023866E9, 0.0, 2024-02-26 18:55:54.023
146.0, 187500.0, 187500.0, 187500.0, 187500.0, 187500.0, 187500.0, 8222.916212429549, -181324.1012482764, 0.05, 0.002, 0.98, 192.0, 0.0, 0.0, 0.0, 0.0, 0.0, 0.0, 0.0, 0.0, 0.0, 1.70899175402783E9, 0.0, 2024-02-26 18:55:54.027
147.0, 187500.0, 187500.0, 187500.0, 187500.0, 187500.0, 187500.0, 7998.705863798365, -181247.85944793935, 0.06, 0.004, 0.982, 192.0, 1.0, 224.0, 0.0, 32.0, 30.0, 176.0, 0.0, 0.0, 0.0, 1.708991754031828E9, 0.0, 2024-02-26 18:55:54.031
148.0, 187500.0, 187500.0, 187500.0, 187500.0, 187500.0, 187500.0, 8394.75642380195, -181274.72624477462, 0.06, 0.004, 0.982, 192.0, 0.0, 0.0, 0.0, 0.0, 0.0, 0.0, 0.0, 0.0, 0.0, 1.708991754035826E9, 0.0, 2024-02-26 18:55:54.035
149.0, 187500.0, 187500.0, 187500.0, 187500.0, 187500.0, 187500.0, 9024.986210463789, -181402.0641329365, 0.06, 0.004, 0.982, 192.0, 0.0, 0.0, 0.0, 0.0, 0.0, 0.0, 0.0, 0.0, 0.0, 1.708991754040847E9, 0.0, 2024-02-26 18:55:54.040
150.0, 187500.0, 187500.0, 187500.0, 187500.0, 187500.0, 187500.0, 8572.877475366293, -181330.51619893507, 0.06, 0.004, 0.982, 192.0, 0.0, 0.0, 0.0, 0.0, 0.0, 0.0, 0.0, 0.0, 0.0, 1.708991754044847E9, 0.0, 2024-02-26 18:55:54.044
151.0, 187500.0, 187500.0, 187500.0, 187500.0, 187500.0, 187500.0, 8170.18844725948, -181252.91094218625, 0.06, 0.004, 0.982, 192.0, 0.0, 0.0, 0.0, 0.0, 0.0, 0.0, 0.0, 0.0, 0.0, 1.708991754047877E9, 0.0, 2024-02-26 18:55:54.047
152.0, 187500.0, 187500.0, 187500.0, 187500.0, 187500.0, 187500.0, 8401.886630283194, -181235.96831988913, 0.06, 0.004, 0.982, 192.0, 0.0, 0.0, 0.0, 0.0, 0.0, 0.0, 0.0, 0.0, 0.0, 1.708991754051867E9, 0.0, 2024-02-26 18:55:54.051
153.0, 187500.0, 187500.0, 187500.0, 187500.0, 187500.0, 187500.0, 9114.840223174122, -181353.7173096797, 0.06, 0.004, 0.982, 192.0, 0.0, 0.0, 0.0, 0.0, 0.0, 0.0, 0.0, 0.0, 0.0, 1.708991754055887E9, 0.0, 2024-02-26 18:55:54.055
154.0, 187500.0, 187500.0, 187500.0, 187500.0, 187500.0, 187500.0, 8936.696819865325, -181332.1031727914, 0.06, 0.004, 0.982, 192.0, 0.0, 0.0, 0.0, 0.0, 0.0, 0.0, 0.0, 0.0, 0.0, 1.708991754059876E9, 0.0, 2024-02-26 18:55:54.059
155.0, 187500.0, 187500.0, 187500.0, 187500.0, 187500.0, 187500.0, 8437.470607456042, -181260.01879692302, 0.06, 0.004, 0.982, 192.0, 0.0, 0.0, 0.0, 0.0, 0.0, 0.0, 0.0, 0.0, 0.0, 1.708991754063895E9, 0.0, 2024-02-26 18:55:54.063
156.0, 187500.0, 187500.0, 187500.0, 187500.0, 187500.0, 187500.0, 8511.186660669644, -181233.48727625457, 0.06, 0.004, 0.982, 192.0, 0.0, 0.0, 0.0, 0.0, 0.0, 0.0, 0.0, 0.0, 0.0, 1.708991754068898E9, 0.0, 2024-02-26 18:55:54.068
157.0, 187500.0, 187500.0, 187500.0, 187500.0, 187500.0, 187500.0, 9179.43676464996, -181346.09536482042, 0.058, 0.008, 0.984, 192.0, 1.0, 208.0, 0.0, 64.0, 30.0, 192.0, 0.0, 0.0, 0.0, 1.708991754072892E9, 0.0, 2024-02-26 18:55:54.072
158.0, 187500.0, 187500.0, 187500.0, 187500.0, 187500.0, 187500.0, 9258.360774321649, -181384.02627516107, 0.058, 0.008, 0.984, 192.0, 0.0, 0.0, 0.0, 0.0, 0.0, 0.0, 0.0, 0.0, 0.0, 1.708991754075903E9, 0.0, 2024-02-26 18:55:54.075
159.0, 187500.0, 187500.0, 187500.0, 187500.0, 187500.0, 187500.0, 8663.446743899196, -181277.8331372539, 0.058, 0.008, 0.984, 192.0, 0.0, 0.0, 0.0, 0.0, 0.0, 0.0, 0.0, 0.0, 0.0, 1.708991754079927E9, 0.0, 2024-02-26 18:55:54.079
160.0, 187500.0, 187500.0, 187500.0, 187500.0, 187500.0, 187500.0, 8578.1748388022, -181255.34728233187, 0.058, 0.008, 0.984, 192.0, 0.0, 0.0, 0.0, 0.0, 0.0, 0.0, 0.0, 0.0, 0.0, 1.708991754083939E9, 0.0, 2024-02-26 18:55:54.083
161.0, 187500.0, 187500.0, 187500.0, 187500.0, 187500.0, 187500.0, 9114.192022584919, -181346.2965305205, 0.058, 0.008, 0.984, 192.0, 0.0, 0.0, 0.0, 0.0, 0.0, 0.0, 0.0, 0.0, 0.0, 1.708991754087892E9, 0.0, 2024-02-26 18:55:54.087
162.0, 187500.0, 187500.0, 187500.0, 187500.0, 187500.0, 187500.0, 9323.314943708772, -181398.4207985903, 0.058, 0.008, 0.984, 192.0, 0.0, 0.0, 0.0, 0.0, 0.0, 0.0, 0.0, 0.0, 0.0, 1.70899175409191E9, 0.0, 2024-02-26 18:55:54.091
163.0, 187500.0, 187500.0, 187500.0, 187500.0, 187500.0, 187500.0, 8811.258829982142, -181263.8409452249, 0.058, 0.008, 0.984, 192.0, 0.0, 0.0, 0.0, 0.0, 0.0, 0.0, 0.0, 0.0, 0.0, 1.708991754096937E9, 0.0, 2024-02-26 18:55:54.096
164.0, 187500.0, 187500.0, 187500.0, 187500.0, 187500.0, 187500.0, 8845.434647254306, -181232.57085473192, 0.058, 0.008, 0.984, 192.0, 0.0, 0.0, 0.0, 0.0, 0.0, 0.0, 0.0, 0.0, 0.0, 1.708991754099917E9, 0.0, 2024-02-26 18:55:54.099
165.0, 187500.0, 187500.0, 187500.0, 187500.0, 187500.0, 187500.0, 9412.476052340991, -181290.41716938224, 0.058, 0.008, 0.984, 192.0, 0.0, 0.0, 0.0, 0.0, 0.0, 0.0, 0.0, 0.0, 0.0, 1.708991754103911E9, 0.0, 2024-02-26 18:55:54.103
166.0, 187500.0, 187500.0, 187500.0, 187500.0, 187500.0, 187500.0, 9868.004604340149, -181387.89312695185, 0.058, 0.008, 0.984, 192.0, 0.0, 0.0, 0.0, 0.0, 0.0, 0.0, 0.0, 0.0, 0.0, 1.708991754107911E9, 0.0, 2024-02-26 18:55:54.107
167.0, 187500.0, 187500.0, 187500.0, 187500.0, 187500.0, 187500.0, 9259.903044689065, -181288.38316063682, 0.056, 0.008, 0.984, 192.0, 1.0, 192.0, 0.0, 64.0, 30.0, 192.0, 0.0, 0.0, 0.0, 1.708991754111915E9, 0.0, 2024-02-26 18:55:54.111
168.0, 187500.0, 187500.0, 187500.0, 187500.0, 187500.0, 187500.0, 9000.488698540772, -181234.82838092188, 0.056, 0.008, 0.984, 192.0, 0.0, 0.0, 0.0, 0.0, 0.0, 0.0, 0.0, 0.0, 0.0, 1.708991754115977E9, 0.0, 2024-02-26 18:55:54.115
169.0, 187500.0, 187500.0, 187500.0, 187500.0, 187500.0, 187500.0, 9307.869888290154, -181265.6290847813, 0.056, 0.008, 0.984, 192.0, 0.0, 0.0, 0.0, 0.0, 0.0, 0.0, 0.0, 0.0, 0.0, 1.708991754119978E9, 0.0, 2024-02-26 18:55:54.119
170.0, 187500.0, 187500.0, 187500.0, 187500.0, 187500.0, 187500.0, 9821.55767936202, -181395.29155436656, 0.056, 0.008, 0.984, 192.0, 0.0, 0.0, 0.0, 0.0, 0.0, 0.0, 0.0, 0.0, 0.0, 1.708991754124972E9, 0.0, 2024-02-26 18:55:54.124
171.0, 187500.0, 187500.0, 187500.0, 187500.0, 187500.0, 187500.0, 9288.043890958297, -181310.80196032548, 0.056, 0.008, 0.984, 192.0, 0.0, 0.0, 0.0, 0.0, 0.0, 0.0, 0.0, 0.0, 0.0, 1.70899175412796E9, 0.0, 2024-02-26 18:55:54.127
172.0, 187500.0, 187500.0, 187500.0, 187500.0, 187500.0, 187500.0, 8876.70473774728, -181233.57668323242, 0.056, 0.008, 0.984, 192.0, 0.0, 0.0, 0.0, 0.0, 0.0, 0.0, 0.0, 0.0, 0.0, 1.70899175413197E9, 0.0, 2024-02-26 18:55:54.131
173.0, 187500.0, 187500.0, 187500.0, 187500.0, 187500.0, 187500.0, 8945.190482758342, -181256.10724164336, 0.056, 0.008, 0.984, 192.0, 0.0, 0.0, 0.0, 0.0, 0.0, 0.0, 0.0, 0.0, 0.0, 1.708991754135972E9, 0.0, 2024-02-26 18:55:54.135
174.0, 187500.0, 187500.0, 187500.0, 187500.0, 187500.0, 187500.0, 9275.996300696886, -181413.28470865308, 0.056, 0.008, 0.984, 192.0, 0.0, 0.0, 0.0, 0.0, 0.0, 0.0, 0.0, 0.0, 0.0, 1.708991754139954E9, 0.0, 2024-02-26 18:55:54.139
175.0, 187500.0, 187500.0, 187500.0, 187500.0, 187500.0, 187500.0, 8615.770472976026, -181367.9106674088, 0.056, 0.008, 0.984, 192.0, 0.0, 0.0, 0.0, 0.0, 0.0, 0.0, 0.0, 0.0, 0.0, 1.708991754143995E9, 0.0, 2024-02-26 18:55:54.143
176.0, 187500.0, 187500.0, 187500.0, 187500.0, 187500.0, 187500.0, 7971.526142540711, -181251.70394798566, 0.056, 0.008, 0.984, 192.0, 0.0, 0.0, 0.0, 0.0, 0.0, 0.0, 0.0, 0.0, 0.0, 1.708991754147979E9, 0.0, 2024-02-26 18:55:54.147
177.0, 187500.0, 187500.0, 187500.0, 187500.0, 187500.0, 187500.0, 8036.21209099437, -181258.9235614447, 0.058, 0.006, 0.98, 192.0, 1.0, 208.0, 0.0, 48.0, 30.0, 160.0, 0.0, 0.0, 0.0, 1.708991754152984E9, 0.0, 2024-02-26 18:55:54.152
178.0, 187500.0, 187500.0, 187500.0, 187500.0, 187500.0, 187500.0, 8596.056234366446, -181392.810510732, 0.058, 0.006, 0.98, 192.0, 0.0, 0.0, 0.0, 0.0, 0.0, 0.0, 0.0, 0.0, 0.0, 1.708991754157015E9, 0.0, 2024-02-26 18:55:54.157
179.0, 187500.0, 187500.0, 187500.0, 187500.0, 187500.0, 187500.0, 8302.622533157175, -181370.19054534324, 0.058, 0.006, 0.98, 192.0, 0.0, 0.0, 0.0, 0.0, 0.0, 0.0, 0.0, 0.0, 0.0, 1.708991754159989E9, 0.0, 2024-02-26 18:55:54.159
180.0, 187500.0, 187500.0, 187500.0, 187500.0, 187500.0, 187500.0, 7662.602682423912, -181246.80891594995, 0.058, 0.006, 0.98, 192.0, 0.0, 0.0, 0.0, 0.0, 0.0, 0.0, 0.0, 0.0, 0.0, 1.708991754164003E9, 0.0, 2024-02-26 18:55:54.164
181.0, 187500.0, 187500.0, 187500.0, 187500.0, 187500.0, 187500.0, 7567.87598942232, -181233.44257276566, 0.058, 0.006, 0.98, 192.0, 0.0, 0.0, 0.0, 0.0, 0.0, 0.0, 0.0, 0.0, 0.0, 1.708991754168007E9, 0.0, 2024-02-26 18:55:54.168
182.0, 187500.0, 187500.0, 187500.0, 187500.0, 187500.0, 187500.0, 8148.462551648921, -181330.2926814905, 0.058, 0.006, 0.98, 192.0, 0.0, 0.0, 0.0, 0.0, 0.0, 0.0, 0.0, 0.0, 0.0, 1.708991754172005E9, 0.0, 2024-02-26 18:55:54.172
183.0, 187500.0, 187500.0, 187500.0, 187500.0, 187500.0, 187500.0, 8381.94887422906, -181346.31888226498, 0.058, 0.006, 0.98, 192.0, 0.0, 0.0, 0.0, 0.0, 0.0, 0.0, 0.0, 0.0, 0.0, 1.70899175417601E9, 0.0, 2024-02-26 18:55:54.176
184.0, 187500.0, 187500.0, 187500.0, 187500.0, 187500.0, 187500.0, 8223.698523485486, -181272.06638718443, 0.058, 0.006, 0.98, 192.0, 0.0, 0.0, 0.0, 0.0, 0.0, 0.0, 0.0, 0.0, 0.0, 1.708991754181068E9, 0.0, 2024-02-26 18:55:54.181
185.0, 187500.0, 187500.0, 187500.0, 187500.0, 187500.0, 187500.0, 8670.442839913707, -181246.8759711833, 0.058, 0.006, 0.98, 192.0, 0.0, 0.0, 0.0, 0.0, 0.0, 0.0, 0.0, 0.0, 0.0, 1.70899175418401E9, 0.0, 2024-02-26 18:55:54.184
186.0, 187500.0, 187500.0, 187500.0, 187500.0, 187500.0, 187500.0, 9389.610217763213, -181313.17124523775, 0.056, 0.012, 0.978, 192.0, 1.0, 192.0, 0.0, 96.0, 30.0, 144.0, 0.0, 0.0, 0.0, 1.708991754188012E9, 0.0, 2024-02-26 18:55:54.188
187.0, 187500.0, 187500.0, 187500.0, 187500.0, 187500.0, 187500.0, 9377.450868779524, -181383.17690887177, 0.056, 0.012, 0.978, 192.0, 0.0, 0.0, 0.0, 0.0, 0.0, 0.0, 0.0, 0.0, 0.0, 1.708991754192012E9, 0.0, 2024-02-26 18:55:54.192
188.0, 187500.0, 187500.0, 187500.0, 187500.0, 187500.0, 187500.0, 8385.838077764283, -181268.4454045827, 0.056, 0.012, 0.978, 192.0, 0.0, 0.0, 0.0, 0.0, 0.0, 0.0, 0.0, 0.0, 0.0, 1.708991754196047E9, 0.0, 2024-02-26 18:55:54.196
189.0, 187500.0, 187500.0, 187500.0, 187500.0, 187500.0, 187500.0, 8196.496450483377, -181236.48241001158, 0.056, 0.012, 0.978, 192.0, 0.0, 0.0, 0.0, 0.0, 0.0, 0.0, 0.0, 0.0, 0.0, 1.70899175420004E9, 0.0, 2024-02-26 18:55:54.200
190.0, 187500.0, 187500.0, 187500.0, 187500.0, 187500.0, 187500.0, 8979.433355263873, -181310.13140799184, 0.056, 0.012, 0.978, 192.0, 0.0, 0.0, 0.0, 0.0, 0.0, 0.0, 0.0, 0.0, 0.0, 1.708991754204041E9, 0.0, 2024-02-26 18:55:54.204
191.0, 187500.0, 187500.0, 187500.0, 187500.0, 187500.0, 187500.0, 9785.951350444717, -181407.5179585836, 0.056, 0.012, 0.978, 192.0, 0.0, 0.0, 0.0, 0.0, 0.0, 0.0, 0.0, 0.0, 0.0, 1.708991754209047E9, 0.0, 2024-02-26 18:55:54.209
192.0, 187500.0, 187500.0, 187500.0, 187500.0, 187500.0, 187500.0, 9366.207941318506, -181284.7845297795, 0.056, 0.012, 0.978, 192.0, 0.0, 0.0, 0.0, 0.0, 0.0, 0.0, 0.0, 0.0, 0.0, 1.708991754212037E9, 0.0, 2024-02-26 18:55:54.212
193.0, 187500.0, 187500.0, 187500.0, 187500.0, 187500.0, 187500.0, 9030.26122215524, -181229.50866574154, 0.056, 0.012, 0.978, 192.0, 0.0, 0.0, 0.0, 0.0, 0.0, 0.0, 0.0, 0.0, 0.0, 1.708991754216045E9, 0.0, 2024-02-26 18:55:54.216
194.0, 187500.0, 187500.0, 187500.0, 187500.0, 187500.0, 187500.0, 9260.327727833715, -181280.8506227554, 0.056, 0.012, 0.978, 192.0, 0.0, 0.0, 0.0, 0.0, 0.0, 0.0, 0.0, 0.0, 0.0, 1.708991754220055E9, 0.0, 2024-02-26 18:55:54.220
195.0, 187500.0, 187500.0, 187500.0, 187500.0, 187500.0, 187500.0, 9872.653767186854, -181404.7239905267, 0.056, 0.012, 0.978, 192.0, 0.0, 0.0, 0.0, 0.0, 0.0, 0.0, 0.0, 0.0, 0.0, 1.708991754224049E9, 0.0, 2024-02-26 18:55:54.224
196.0, 187500.0, 187500.0, 187500.0, 187500.0, 187500.0, 187500.0, 9587.020824792484, -181313.57357663795, 0.058, 0.012, 0.98, 192.0, 1.0, 208.0, 0.0, 96.0, 30.0, 160.0, 0.0, 0.0, 0.0, 1.708991754228083E9, 0.0, 2024-02-26 18:55:54.228
197.0, 187500.0, 187500.0, 187500.0, 187500.0, 187500.0, 187500.0, 9399.154412645628, -181236.48241001158, 0.058, 0.012, 0.98, 192.0, 0.0, 0.0, 0.0, 0.0, 0.0, 0.0, 0.0, 0.0, 0.0, 1.708991754233042E9, 0.0, 2024-02-26 18:55:54.233
198.0, 187500.0, 187500.0, 187500.0, 187500.0, 187500.0, 187500.0, 9665.542503063978, -181248.48529678409, 0.058, 0.012, 0.98, 192.0, 0.0, 0.0, 0.0, 0.0, 0.0, 0.0, 0.0, 0.0, 0.0, 1.708991754236096E9, 0.0, 2024-02-26 18:55:54.236
199.0, 187500.0, 187500.0, 187500.0, 187500.0, 187500.0, 187500.0, 10296.621656015117, -181363.01563537307, 0.058, 0.012, 0.98, 192.0, 0.0, 0.0, 0.0, 0.0, 0.0, 0.0, 0.0, 0.0, 0.0, 1.708991754239086E9, 0.0, 2024-02-26 18:55:54.239
200.0, 187500.0, 187500.0, 187500.0, 187500.0, 187500.0, 187500.0, 10066.666909058918, -181311.6960301037, 0.058, 0.012, 0.98, 192.0, 0.0, 0.0, 0.0, 0.0, 0.0, 0.0, 0.0, 0.0, 0.0, 1.70899175424308E9, 0.0, 2024-02-26 18:55:54.243
201.0, 187500.0, 187500.0, 187500.0, 187500.0, 187500.0, 187500.0, 9753.474265751156, -181249.64758749577, 0.058, 0.012, 0.98, 192.0, 0.0, 0.0, 0.0, 0.0, 0.0, 0.0, 0.0, 0.0, 0.0, 1.708991754248092E9, 0.0, 2024-02-26 18:55:54.248
202.0, 187500.0, 187500.0, 187500.0, 187500.0, 187500.0, 187500.0, 9870.329185763501, -181231.05093610895, 0.058, 0.012, 0.98, 192.0, 0.0, 0.0, 0.0, 0.0, 0.0, 0.0, 0.0, 0.0, 0.0, 1.708991754252099E9, 0.0, 2024-02-26 18:55:54.252
203.0, 187500.0, 187500.0, 187500.0, 187500.0, 187500.0, 187500.0, 10285.110507620635, -181357.45005100372, 0.058, 0.012, 0.98, 192.0, 0.0, 0.0, 0.0, 0.0, 0.0, 0.0, 0.0, 0.0, 0.0, 1.708991754257083E9, 0.0, 2024-02-26 18:55:54.257
204.0, 187500.0, 187500.0, 187500.0, 187500.0, 187500.0, 187500.0, 9870.463296230233, -181365.54138249654, 0.058, 0.012, 0.98, 192.0, 0.0, 0.0, 0.0, 0.0, 0.0, 0.0, 0.0, 0.0, 0.0, 1.708991754261077E9, 0.0, 2024-02-26 18:55:54.261
205.0, 187500.0, 187500.0, 187500.0, 187500.0, 187500.0, 187500.0, 9165.019889476287, -181230.60390121985, 0.058, 0.012, 0.98, 192.0, 0.0, 0.0, 0.0, 0.0, 0.0, 0.0, 0.0, 0.0, 0.0, 1.708991754266011E9, 0.0, 2024-02-26 18:55:54.266
206.0, 187500.0, 187500.0, 187500.0, 187500.0, 187500.0, 187500.0, 9177.983901260364, -181216.9246336132, 0.06, 0.008, 0.98, 192.0, 1.0, 224.0, 0.0, 64.0, 30.0, 160.0, 0.0, 0.0, 0.0, 1.708991754267148E9, 0.0, 2024-02-26 18:55:54.267
207.0, 187500.0, 187500.0, 187500.0, 187500.0, 187500.0, 187500.0, 9708.994294285094, -181316.97104179516, 0.06, 0.008, 0.98, 192.0, 0.0, 0.0, 0.0, 0.0, 0.0, 0.0, 0.0, 0.0, 0.0, 1.708991754271125E9, 0.0, 2024-02-26 18:55:54.271
208.0, 187500.0, 187500.0, 187500.0, 187500.0, 187500.0, 187500.0, 9663.530846063, -181351.8621148899, 0.06, 0.008, 0.98, 192.0, 0.0, 0.0, 0.0, 0.0, 0.0, 0.0, 0.0, 0.0, 0.0, 1.708991754276121E9, 0.0, 2024-02-26 18:55:54.276
209.0, 187500.0, 187500.0, 187500.0, 187500.0, 187500.0, 187500.0, 8918.569555112072, -181249.89345668477, 0.06, 0.008, 0.98, 192.0, 0.0, 0.0, 0.0, 0.0, 0.0, 0.0, 0.0, 0.0, 0.0, 1.708991754280121E9, 0.0, 2024-02-26 18:55:54.280
210.0, 187500.0, 187500.0, 187500.0, 187500.0, 187500.0, 187500.0, 8787.387166903874, -181219.36097375883, 0.06, 0.008, 0.98, 192.0, 0.0, 0.0, 0.0, 0.0, 0.0, 0.0, 0.0, 0.0, 0.0, 1.708991754284121E9, 0.0, 2024-02-26 18:55:54.284
211.0, 187500.0, 187500.0, 187500.0, 187500.0, 187500.0, 187500.0, 9357.870740636676, -181305.25872770057, 0.06, 0.008, 0.98, 192.0, 0.0, 0.0, 0.0, 0.0, 0.0, 0.0, 0.0, 0.0, 0.0, 1.708991754288127E9, 0.0, 2024-02-26 18:55:54.288
212.0, 187500.0, 187500.0, 187500.0, 187500.0, 187500.0, 187500.0, 9720.594849657398, -181380.8076239595, 0.06, 0.008, 0.98, 192.0, 0.0, 0.0, 0.0, 0.0, 0.0, 0.0, 0.0, 0.0, 0.0, 1.708991754292119E9, 0.0, 2024-02-26 18:55:54.292
213.0, 187500.0, 187500.0, 187500.0, 187500.0, 187500.0, 187500.0, 9120.38345579904, -181260.59994227887, 0.06, 0.008, 0.98, 192.0, 0.0, 0.0, 0.0, 0.0, 0.0, 0.0, 0.0, 0.0, 0.0, 1.708991754295116E9, 0.0, 2024-02-26 18:55:54.295
214.0, 187500.0, 187500.0, 187500.0, 187500.0, 187500.0, 187500.0, 8940.362505955996, -181226.53588372897, 0.06, 0.008, 0.98, 192.0, 0.0, 0.0, 0.0, 0.0, 0.0, 0.0, 0.0, 0.0, 0.0, 1.708991754299118E9, 0.0, 2024-02-26 18:55:54.299
215.0, 187500.0, 187500.0, 187500.0, 187500.0, 187500.0, 187500.0, 9382.077679881773, -181275.1956314082, 0.06, 0.008, 0.98, 192.0, 0.0, 0.0, 0.0, 0.0, 0.0, 0.0, 0.0, 0.0, 0.0, 1.70899175430413E9, 0.0, 2024-02-26 18:55:54.304
216.0, 187500.0, 187500.0, 187500.0, 187500.0, 187500.0, 187500.0, 9929.784826014618, -181375.89024017935, 0.058, 0.012, 0.972, 192.0, 1.0, 208.0, 0.0, 96.0, 30.0, 96.0, 0.0, 0.0, 0.0, 1.708991754308131E9, 0.0, 2024-02-26 18:55:54.308
217.0, 187500.0, 187500.0, 187500.0, 187500.0, 187500.0, 187500.0, 9459.548826163867, -181281.6329338113, 0.058, 0.012, 0.972, 192.0, 0.0, 0.0, 0.0, 0.0, 0.0, 0.0, 0.0, 0.0, 0.0, 1.708991754313153E9, 0.0, 2024-02-26 18:55:54.313
218.0, 187500.0, 187500.0, 187500.0, 187500.0, 187500.0, 187500.0, 9200.648570138046, -181230.87212215332, 0.058, 0.012, 0.972, 192.0, 0.0, 0.0, 0.0, 0.0, 0.0, 0.0, 0.0, 0.0, 0.0, 1.708991754316174E9, 0.0, 2024-02-26 18:55:54.316
219.0, 187500.0, 187500.0, 187500.0, 187500.0, 187500.0, 187500.0, 9426.53529960338, -181255.50374454306, 0.058, 0.012, 0.972, 192.0, 0.0, 0.0, 0.0, 0.0, 0.0, 0.0, 0.0, 0.0, 0.0, 1.708991754320179E9, 0.0, 2024-02-26 18:55:54.320
220.0, 187500.0, 187500.0, 187500.0, 187500.0, 187500.0, 187500.0, 9898.335921566, -181380.1594233703, 0.058, 0.012, 0.972, 192.0, 0.0, 0.0, 0.0, 0.0, 0.0, 0.0, 0.0, 0.0, 0.0, 1.708991754324184E9, 0.0, 2024-02-26 18:55:54.324
221.0, 187500.0, 187500.0, 187500.0, 187500.0, 187500.0, 187500.0, 9427.33996240377, -181315.00408828308, 0.058, 0.012, 0.972, 192.0, 0.0, 0.0, 0.0, 0.0, 0.0, 0.0, 0.0, 0.0, 0.0, 1.70899175432818E9, 0.0, 2024-02-26 18:55:54.328
222.0, 187500.0, 187500.0, 187500.0, 187500.0, 187500.0, 187500.0, 9007.663608510926, -181213.39305798925, 0.058, 0.012, 0.972, 192.0, 0.0, 0.0, 0.0, 0.0, 0.0, 0.0, 0.0, 0.0, 0.0, 1.708991754331176E9, 0.0, 2024-02-26 18:55:54.331
223.0, 187500.0, 187500.0, 187500.0, 187500.0, 187500.0, 187500.0, 9134.777979228256, -181222.71373542713, 0.058, 0.012, 0.972, 192.0, 0.0, 0.0, 0.0, 0.0, 0.0, 0.0, 0.0, 0.0, 0.0, 1.708991754335174E9, 0.0, 2024-02-26 18:55:54.335
224.0, 187500.0, 187500.0, 187500.0, 187500.0, 187500.0, 187500.0, 9618.581487963378, -181362.88152490635, 0.058, 0.012, 0.972, 192.0, 0.0, 0.0, 0.0, 0.0, 0.0, 0.0, 0.0, 0.0, 0.0, 1.708991754339173E9, 0.0, 2024-02-26 18:55:54.339
225.0, 187500.0, 187500.0, 187500.0, 187500.0, 187500.0, 187500.0, 9187.326930442683, -181325.42000119927, 0.058, 0.012, 0.972, 192.0, 0.0, 0.0, 0.0, 0.0, 0.0, 0.0, 0.0, 0.0, 0.0, 1.708991754344206E9, 0.0, 2024-02-26 18:55:54.344
226.0, 187500.0, 187500.0, 187500.0, 187500.0, 187500.0, 187500.0, 8620.509042800551, -181235.02954662198, 0.054, 0.01, 0.98, 192.0, 1.0, 176.0, 0.0, 80.0, 30.0, 160.0, 0.0, 0.0, 0.0, 1.708991754348203E9, 0.0, 2024-02-26 18:55:54.348
227.0, 187500.0, 187500.0, 187500.0, 187500.0, 187500.0, 187500.0, 8699.09777630541, -181231.54267448696, 0.054, 0.01, 0.98, 192.0, 0.0, 0.0, 0.0, 0.0, 0.0, 0.0, 0.0, 0.0, 0.0, 1.70899175435222E9, 0.0, 2024-02-26 18:55:54.352
228.0, 187500.0, 187500.0, 187500.0, 187500.0, 187500.0, 187500.0, 9243.630974725602, -181357.71827193716, 0.054, 0.01, 0.98, 192.0, 0.0, 0.0, 0.0, 0.0, 0.0, 0.0, 0.0, 0.0, 0.0, 1.70899175435621E9, 0.0, 2024-02-26 18:55:54.356
229.0, 187500.0, 187500.0, 187500.0, 187500.0, 187500.0, 187500.0, 8963.697727167337, -181353.58319921294, 0.054, 0.01, 0.98, 192.0, 0.0, 0.0, 0.0, 0.0, 0.0, 0.0, 0.0, 0.0, 0.0, 1.708991754359221E9, 0.0, 2024-02-26 18:55:54.359
230.0, 187500.0, 187500.0, 187500.0, 187500.0, 187500.0, 187500.0, 8209.214593078446, -181229.21809306362, 0.054, 0.01, 0.98, 192.0, 0.0, 0.0, 0.0, 0.0, 0.0, 0.0, 0.0, 0.0, 0.0, 1.708991754363212E9, 0.0, 2024-02-26 18:55:54.363
231.0, 187500.0, 187500.0, 187500.0, 187500.0, 187500.0, 187500.0, 8074.299463546213, -181207.64865966424, 0.054, 0.01, 0.98, 192.0, 0.0, 0.0, 0.0, 0.0, 0.0, 0.0, 0.0, 0.0, 0.0, 1.708991754367209E9, 0.0, 2024-02-26 18:55:54.367
232.0, 187500.0, 187500.0, 187500.0, 187500.0, 187500.0, 187500.0, 8600.437176279685, -181292.1382537053, 0.054, 0.01, 0.98, 192.0, 0.0, 0.0, 0.0, 0.0, 0.0, 0.0, 0.0, 0.0, 0.0, 1.70899175437122E9, 0.0, 2024-02-26 18:55:54.371
233.0, 187500.0, 187500.0, 187500.0, 187500.0, 187500.0, 187500.0, 8803.0780915115, -181348.12937356584, 0.054, 0.01, 0.98, 192.0, 0.0, 0.0, 0.0, 0.0, 0.0, 0.0, 0.0, 0.0, 0.0, 1.708991754376209E9, 0.0, 2024-02-26 18:55:54.376
234.0, 187500.0, 187500.0, 187500.0, 187500.0, 187500.0, 187500.0, 8206.420625021532, -181248.39588980627, 0.054, 0.01, 0.98, 192.0, 0.0, 0.0, 0.0, 0.0, 0.0, 0.0, 0.0, 0.0, 0.0, 1.708991754380209E9, 0.0, 2024-02-26 18:55:54.380
235.0, 187500.0, 187500.0, 187500.0, 187500.0, 187500.0, 187500.0, 8050.07017255666, -181214.04125857845, 0.054, 0.01, 0.98, 192.0, 0.0, 0.0, 0.0, 0.0, 0.0, 0.0, 0.0, 0.0, 0.0, 1.708991754384207E9, 0.0, 2024-02-26 18:55:54.384
236.0, 187500.0, 187500.0, 187500.0, 187500.0, 187500.0, 187500.0, 8481.235323099532, -181291.33359090492, 0.056, 0.012, 0.976, 192.0, 1.0, 192.0, 0.0, 96.0, 30.0, 128.0, 0.0, 0.0, 0.0, 1.70899175438721E9, 0.0, 2024-02-26 18:55:54.387
237.0, 187500.0, 187500.0, 187500.0, 187500.0, 187500.0, 187500.0, 8820.110120786443, -181378.19246985824, 0.056, 0.012, 0.976, 192.0, 0.0, 0.0, 0.0, 0.0, 0.0, 0.0, 0.0, 0.0, 0.0, 1.708991754391248E9, 0.0, 2024-02-26 18:55:54.391
238.0, 187500.0, 187500.0, 187500.0, 187500.0, 187500.0, 187500.0, 8333.736161438961, -181268.11012841586, 0.056, 0.012, 0.976, 192.0, 0.0, 0.0, 0.0, 0.0, 0.0, 0.0, 0.0, 0.0, 0.0, 1.708991754395248E9, 0.0, 2024-02-26 18:55:54.395
239.0, 187500.0, 187500.0, 187500.0, 187500.0, 187500.0, 187500.0, 8279.77905032385, -181221.55144471544, 0.056, 0.012, 0.976, 192.0, 0.0, 0.0, 0.0, 0.0, 0.0, 0.0, 0.0, 0.0, 0.0, 1.70899175439925E9, 0.0, 2024-02-26 18:55:54.399
240.0, 187500.0, 187500.0, 187500.0, 187500.0, 187500.0, 187500.0, 8726.858642918902, -181267.46192782663, 0.056, 0.012, 0.976, 192.0, 0.0, 0.0, 0.0, 0.0, 0.0, 0.0, 0.0, 0.0, 0.0, 1.708991754404271E9, 0.0, 2024-02-26 18:55:54.404
241.0, 187500.0, 187500.0, 187500.0, 187500.0, 187500.0, 187500.0, 9152.078229436664, -181377.38780705785, 0.056, 0.012, 0.976, 192.0, 0.0, 0.0, 0.0, 0.0, 0.0, 0.0, 0.0, 0.0, 0.0, 1.708991754408253E9, 0.0, 2024-02-26 18:55:54.408
242.0, 187500.0, 187500.0, 187500.0, 187500.0, 187500.0, 187500.0, 8541.45092266213, -181276.51438433104, 0.056, 0.012, 0.976, 192.0, 0.0, 0.0, 0.0, 0.0, 0.0, 0.0, 0.0, 0.0, 0.0, 1.708991754412248E9, 0.0, 2024-02-26 18:55:54.412
243.0, 187500.0, 187500.0, 187500.0, 187500.0, 187500.0, 187500.0, 8253.225177910947, -181216.76817140201, 0.056, 0.012, 0.976, 192.0, 0.0, 0.0, 0.0, 0.0, 0.0, 0.0, 0.0, 0.0, 0.0, 1.708991754415255E9, 0.0, 2024-02-26 18:55:54.415
244.0, 187500.0, 187500.0, 187500.0, 187500.0, 187500.0, 187500.0, 8549.229329732578, -181248.9323316732, 0.056, 0.012, 0.976, 192.0, 0.0, 0.0, 0.0, 0.0, 0.0, 0.0, 0.0, 0.0, 0.0, 1.708991754419259E9, 0.0, 2024-02-26 18:55:54.419
245.0, 187500.0, 187500.0, 187500.0, 187500.0, 187500.0, 187500.0, 9092.89081011901, -181379.53357452556, 0.056, 0.012, 0.976, 192.0, 0.0, 0.0, 0.0, 0.0, 0.0, 0.0, 0.0, 0.0, 0.0, 1.708991754423259E9, 0.0, 2024-02-26 18:55:54.423
246.0, 187500.0, 187500.0, 187500.0, 187500.0, 187500.0, 187500.0, 8592.949341887157, -181308.9914690246, 0.062, 0.01, 0.978, 192.0, 1.0, 240.0, 0.0, 80.0, 30.0, 144.0, 0.0, 0.0, 0.0, 1.708991754427249E9, 0.0, 2024-02-26 18:55:54.427
247.0, 187500.0, 187500.0, 187500.0, 187500.0, 187500.0, 187500.0, 8114.242030887846, -181216.030563835, 0.062, 0.01, 0.978, 192.0, 0.0, 0.0, 0.0, 0.0, 0.0, 0.0, 0.0, 0.0, 0.0, 1.708991754432269E9, 0.0, 2024-02-26 18:55:54.432
248.0, 187500.0, 187500.0, 187500.0, 187500.0, 187500.0, 187500.0, 8241.736381260918, -181222.40081100474, 0.062, 0.01, 0.978, 192.0, 0.0, 0.0, 0.0, 0.0, 0.0, 0.0, 0.0, 0.0, 0.0, 1.708991754436267E9, 0.0, 2024-02-26 18:55:54.436
249.0, 187500.0, 187500.0, 187500.0, 187500.0, 187500.0, 187500.0, 8838.12562681742, -181343.23434153013, 0.062, 0.01, 0.978, 192.0, 0.0, 0.0, 0.0, 0.0, 0.0, 0.0, 0.0, 0.0, 0.0, 1.708991754439303E9, 0.0, 2024-02-26 18:55:54.439
250.0, 187500.0, 187500.0, 187500.0, 187500.0, 187500.0, 187500.0, 8589.596580218862, -181329.21979775667, 0.062, 0.01, 0.978, 192.0, 0.0, 0.0, 0.0, 0.0, 0.0, 0.0, 0.0, 0.0, 0.0, 1.708991754443306E9, 0.0, 2024-02-26 18:55:54.443
251.0, 187500.0, 187500.0, 187500.0, 187500.0, 187500.0, 187500.0, 8011.558116860166, -181234.00136637705, 0.062, 0.01, 0.978, 192.0, 0.0, 0.0, 0.0, 0.0, 0.0, 0.0, 0.0, 0.0, 0.0, 1.708991754448305E9, 0.0, 2024-02-26 18:55:54.448
252.0, 187500.0, 187500.0, 187500.0, 187500.0, 187500.0, 187500.0, 8003.064453967149, -181226.3794215178, 0.062, 0.01, 0.978, 192.0, 0.0, 0.0, 0.0, 0.0, 0.0, 0.0, 0.0, 0.0, 0.0, 1.708991754452306E9, 0.0, 2024-02-26 18:55:54.452
253.0, 187500.0, 187500.0, 187500.0, 187500.0, 187500.0, 187500.0, 8609.80255720646, -181338.8981031058, 0.062, 0.01, 0.978, 192.0, 0.0, 0.0, 0.0, 0.0, 0.0, 0.0, 0.0, 0.0, 0.0, 1.708991754455299E9, 0.0, 2024-02-26 18:55:54.455
254.0, 187500.0, 187500.0, 187500.0, 187500.0, 187500.0, 187500.0, 8534.141902225245, -181357.27123704806, 0.062, 0.01, 0.978, 192.0, 0.0, 0.0, 0.0, 0.0, 0.0, 0.0, 0.0, 0.0, 0.0, 1.708991754460304E9, 0.0, 2024-02-26 18:55:54.460
255.0, 187500.0, 187500.0, 187500.0, 187500.0, 187500.0, 187500.0, 7913.433958701367, -181234.89543615526, 0.062, 0.01, 0.978, 192.0, 0.0, 0.0, 0.0, 0.0, 0.0, 0.0, 0.0, 0.0, 0.0, 1.708991754464333E9, 0.0, 2024-02-26 18:55:54.464
0.0, 187500.0, 187500.0, 187500.0, 187500.0, 187500.0, 187500.0, 7845.663469512877, -181209.45915096512, 0.06, 0.01, 0.978, 192.0, 1.0, 224.0, 0.0, 80.0, 30.0, 144.0, 0.0, 0.0, 0.0, 1.708991754467324E9, 0.0, 2024-02-26 18:55:54.467
1.0, 187500.0, 187500.0, 187500.0, 187500.0, 187500.0, 187500.0, 8332.618574216196, -181301.36952416535, 0.06, 0.01, 0.978, 192.0, 0.0, 0.0, 0.0, 0.0, 0.0, 0.0, 0.0, 0.0, 0.0, 1.70899175447131E9, 0.0, 2024-02-26 18:55:54.471
2.0, 187500.0, 187500.0, 187500.0, 187500.0, 187500.0, 187500.0, 8502.223611143067, -181362.54624873953, 0.06, 0.01, 0.978, 192.0, 0.0, 0.0, 0.0, 0.0, 0.0, 0.0, 0.0, 0.0, 0.0, 1.708991754475302E9, 0.0, 2024-02-26 18:55:54.475
3.0, 187500.0, 187500.0, 187500.0, 187500.0, 187500.0, 187500.0, 7877.827629784064, -181251.2345613521, 0.06, 0.01, 0.978, 192.0, 0.0, 0.0, 0.0, 0.0, 0.0, 0.0, 0.0, 0.0, 0.0, 1.708991754479345E9, 0.0, 2024-02-26 18:55:54.479
4.0, 187500.0, 187500.0, 187500.0, 187500.0, 187500.0, 187500.0, 7696.040892129051, -181221.81966564892, 0.06, 0.01, 0.978, 192.0, 0.0, 0.0, 0.0, 0.0, 0.0, 0.0, 0.0, 0.0, 0.0, 1.708991754483343E9, 0.0, 2024-02-26 18:55:54.483
